# lam(nm) Flux (phot/s/cm2/Ang)
465 7.91826e-06
465.125 7.92039e-06
465.25 8.0256e-06
465.375 8.13086e-06
465.5 8.13305e-06
465.625 8.13523e-06
465.75 8.3189e-06
465.875 8.50266e-06
466 8.50494e-06
466.125 8.50722e-06
466.25 8.34942e-06
466.375 8.19154e-06
466.5 8.19373e-06
466.625 8.19593e-06
466.75 8.14192e-06
466.875 8.08789e-06
467 8.09005e-06
467.125 8.09222e-06
467.25 8.04454e-06
467.375 7.99684e-06
467.5 7.99898e-06
467.625 8.00112e-06
467.75 7.94733e-06
467.875 7.89351e-06
468 7.89562e-06
468.125 7.89772e-06
468.25 7.86119e-06
468.375 7.82463e-06
468.5 7.82672e-06
468.625 7.8288e-06
468.75 7.85194e-06
468.875 7.87509e-06
469 7.87719e-06
469.125 7.87929e-06
469.25 7.94765e-06
469.375 8.01606e-06
469.5 8.01819e-06
469.625 8.02033e-06
469.75 7.98689e-06
469.875 7.95344e-06
470 7.95556e-06
470.125 7.95767e-06
470.25 7.94121e-06
470.375 7.92474e-06
470.5 7.92685e-06
470.625 7.92896e-06
470.75 7.9171e-06
470.875 7.90523e-06
471 7.90733e-06
471.125 7.90943e-06
471.25 8.01655e-06
471.375 8.12374e-06
471.5 8.12589e-06
471.625 8.12805e-06
471.75 8.26023e-06
471.875 8.39249e-06
472 8.39471e-06
472.125 8.39693e-06
472.25 8.40091e-06
472.375 8.40489e-06
472.5 8.40711e-06
472.625 8.40934e-06
472.75 8.36381e-06
472.875 8.31826e-06
473 8.32046e-06
473.125 8.32265e-06
473.25 8.33474e-06
473.375 8.34682e-06
473.5 8.34903e-06
473.625 8.35123e-06
473.75 8.36311e-06
473.875 8.375e-06
474 8.37721e-06
474.125 8.37941e-06
474.25 8.31424e-06
474.375 8.24904e-06
474.5 8.25121e-06
474.625 8.25338e-06
474.75 8.43575e-06
474.875 8.61822e-06
475 8.62049e-06
475.125 8.62276e-06
475.25 8.46999e-06
475.375 8.31713e-06
475.5 8.31932e-06
475.625 8.32151e-06
475.75 8.21678e-06
475.875 8.11201e-06
476 8.11414e-06
476.125 8.11627e-06
476.25 8.09179e-06
476.375 8.0673e-06
476.5 8.06942e-06
476.625 8.07154e-06
476.75 8.14055e-06
476.875 8.2096e-06
477 8.21176e-06
477.125 8.21391e-06
477.25 8.30618e-06
477.375 8.39851e-06
477.5 8.40071e-06
477.625 8.40291e-06
477.75 8.41951e-06
477.875 8.43612e-06
478 8.43833e-06
478.125 8.44054e-06
478.25 8.42942e-06
478.375 8.4183e-06
478.5 8.4205e-06
478.625 8.4227e-06
478.75 8.48363e-06
478.875 8.5446e-06
479 8.54683e-06
479.125 8.54906e-06
479.25 8.58914e-06
479.375 8.62924e-06
479.5 8.63149e-06
479.625 8.63374e-06
479.75 8.67741e-06
479.875 8.72109e-06
480 8.72337e-06
480.125 8.72564e-06
480.25 8.73434e-06
480.375 8.74305e-06
480.5 8.74532e-06
480.625 8.7476e-06
480.75 8.7497e-06
480.875 8.75181e-06
481 8.75409e-06
481.125 8.75636e-06
481.25 8.78439e-06
481.375 8.81243e-06
481.5 8.81472e-06
481.625 8.81701e-06
481.75 8.84086e-06
481.875 8.86472e-06
482 8.86702e-06
482.125 8.86932e-06
482.25 8.77915e-06
482.375 8.68894e-06
482.5 8.69119e-06
482.625 8.69344e-06
482.75 8.61377e-06
482.875 8.53406e-06
483 8.53627e-06
483.125 8.53848e-06
483.25 8.52191e-06
483.375 8.50532e-06
483.5 8.50752e-06
483.625 8.50972e-06
483.75 8.54485e-06
483.875 8.58e-06
484 8.58222e-06
484.125 8.58443e-06
484.25 8.60174e-06
484.375 8.61905e-06
484.5 8.62128e-06
484.625 8.6235e-06
484.75 8.59982e-06
484.875 8.57612e-06
485 8.57833e-06
485.125 8.58054e-06
485.25 8.49388e-06
485.375 8.40718e-06
485.5 8.40934e-06
485.625 8.41151e-06
485.75 8.18057e-06
485.875 7.94951e-06
486 7.95155e-06
486.125 7.9536e-06
486.25 7.99132e-06
486.375 8.02907e-06
486.5 8.03113e-06
486.625 8.0332e-06
486.75 7.84825e-06
486.875 7.6632e-06
487 7.66517e-06
487.125 7.66714e-06
487.25 7.65068e-06
487.375 7.63421e-06
487.5 7.63617e-06
487.625 7.63813e-06
487.75 7.67903e-06
487.875 7.71995e-06
488 7.72193e-06
488.125 7.72391e-06
488.25 7.73646e-06
488.375 7.74901e-06
488.5 7.75099e-06
488.625 7.75298e-06
488.75 7.77723e-06
488.875 7.80149e-06
489 7.80349e-06
489.125 7.80548e-06
489.25 7.9625e-06
489.375 8.1196e-06
489.5 8.12167e-06
489.625 8.12375e-06
489.75 8.3864e-06
489.875 8.64918e-06
490 8.65139e-06
490.125 8.65359e-06
490.25 8.7462e-06
490.375 8.83885e-06
490.5 8.8411e-06
490.625 8.84336e-06
490.75 8.82328e-06
490.875 8.80319e-06
491 8.80544e-06
491.125 8.80768e-06
491.25 8.79327e-06
491.375 8.77885e-06
491.5 8.78109e-06
491.625 8.78332e-06
491.75 8.71822e-06
491.875 8.65308e-06
492 8.65528e-06
492.125 8.65748e-06
492.25 8.47446e-06
492.375 8.29134e-06
492.5 8.29345e-06
492.625 8.29555e-06
492.75 8.36479e-06
492.875 8.43406e-06
493 8.4362e-06
493.125 8.43834e-06
493.25 8.40134e-06
493.375 8.36432e-06
493.5 8.36644e-06
493.625 8.36856e-06
493.75 8.42337e-06
493.875 8.47821e-06
494 8.48036e-06
494.125 8.4825e-06
494.25 8.58074e-06
494.375 8.67902e-06
494.5 8.68122e-06
494.625 8.68341e-06
494.75 8.79169e-06
494.875 8.90002e-06
495 8.90227e-06
495.125 8.90452e-06
495.25 8.93355e-06
495.375 8.96259e-06
495.5 8.96485e-06
495.625 8.96712e-06
495.75 8.78392e-06
495.875 8.60064e-06
496 8.60281e-06
496.125 8.60498e-06
496.25 8.55108e-06
496.375 8.49716e-06
496.5 8.4993e-06
496.625 8.50144e-06
496.75 8.50529e-06
496.875 8.50914e-06
497 8.51128e-06
497.125 8.51342e-06
497.25 8.50573e-06
497.375 8.49804e-06
497.5 8.50018e-06
497.625 8.50231e-06
497.75 8.40172e-06
497.875 8.30108e-06
498 8.30317e-06
498.125 8.30525e-06
498.25 8.21223e-06
498.375 8.11916e-06
498.5 8.1212e-06
498.625 8.12324e-06
498.75 8.23536e-06
498.875 8.34753e-06
499 8.34962e-06
499.125 8.35171e-06
499.25 8.41279e-06
499.375 8.47389e-06
499.5 8.47601e-06
499.625 8.47813e-06
499.75 8.51615e-06
499.875 8.5542e-06
500 8.55634e-06
500.125 8.55847e-06
500.25 8.57287e-06
500.375 8.58727e-06
500.5 8.58941e-06
500.625 8.59156e-06
500.75 8.57303e-06
500.875 8.55449e-06
501 8.55662e-06
501.125 8.55876e-06
501.25 8.49843e-06
501.375 8.43807e-06
501.5 8.44018e-06
501.625 8.44228e-06
501.75 8.36065e-06
501.875 8.27898e-06
502 8.28105e-06
502.125 8.28311e-06
502.25 8.34714e-06
502.375 8.4112e-06
502.5 8.41329e-06
502.625 8.41538e-06
502.75 8.55241e-06
502.875 8.68951e-06
503 8.69167e-06
503.125 8.69383e-06
503.25 8.68468e-06
503.375 8.67553e-06
503.5 8.67769e-06
503.625 8.67984e-06
503.75 8.61848e-06
503.875 8.55708e-06
504 8.5592e-06
504.125 8.56133e-06
504.25 8.55368e-06
504.375 8.54603e-06
504.5 8.54815e-06
504.625 8.55027e-06
504.75 8.63464e-06
504.875 8.71905e-06
505 8.72121e-06
505.125 8.72337e-06
505.25 8.68551e-06
505.375 8.64763e-06
505.5 8.64977e-06
505.625 8.65191e-06
505.75 8.75625e-06
505.875 8.86064e-06
506 8.86283e-06
506.125 8.86502e-06
506.25 8.9701e-06
506.375 9.07522e-06
506.5 9.07746e-06
506.625 9.0797e-06
506.75 9.08994e-06
506.875 9.10017e-06
507 9.10242e-06
507.125 9.10466e-06
507.25 8.97897e-06
507.375 8.85322e-06
507.5 8.8554e-06
507.625 8.85758e-06
507.75 8.63577e-06
507.875 8.41384e-06
508 8.41591e-06
508.125 8.41798e-06
508.25 8.56578e-06
508.375 8.71365e-06
508.5 8.71579e-06
508.625 8.71794e-06
508.75 8.7768e-06
508.875 8.83568e-06
509 8.83785e-06
509.125 8.84002e-06
509.25 8.85702e-06
509.375 8.87402e-06
509.5 8.8762e-06
509.625 8.87838e-06
509.75 8.85291e-06
509.875 8.82744e-06
510 8.8296e-06
510.125 8.83177e-06
510.25 8.78501e-06
510.375 8.73822e-06
510.5 8.74036e-06
510.625 8.7425e-06
510.75 8.85142e-06
510.875 8.96038e-06
511 8.96258e-06
511.125 8.96477e-06
511.25 9.01129e-06
511.375 9.05783e-06
511.5 9.06004e-06
511.625 9.06226e-06
511.75 9.06392e-06
511.875 9.06559e-06
512 9.0678e-06
512.125 9.07002e-06
512.25 8.95925e-06
512.375 8.84842e-06
512.5 8.85058e-06
512.625 8.85274e-06
512.75 8.72809e-06
512.875 8.60339e-06
513 8.60549e-06
513.125 8.60758e-06
513.25 8.76389e-06
513.375 8.92027e-06
513.5 8.92244e-06
513.625 8.92462e-06
513.75 8.79813e-06
513.875 8.67158e-06
514 8.67368e-06
514.125 8.67579e-06
514.25 8.6996e-06
514.375 8.72342e-06
514.5 8.72554e-06
514.625 8.72766e-06
514.75 8.76139e-06
514.875 8.79514e-06
515 8.79727e-06
515.125 8.79941e-06
515.25 8.7741e-06
515.375 8.74877e-06
515.5 8.75089e-06
515.625 8.75301e-06
515.75 8.66187e-06
515.875 8.57068e-06
516 8.57276e-06
516.125 8.57484e-06
516.25 8.54836e-06
516.375 8.52187e-06
516.5 8.52394e-06
516.625 8.526e-06
516.75 8.14211e-06
516.875 7.75803e-06
517 7.7599e-06
517.125 7.76178e-06
517.25 7.67617e-06
517.375 7.59051e-06
517.5 7.59235e-06
517.625 7.59418e-06
517.75 7.73535e-06
517.875 7.87658e-06
518 7.87848e-06
518.125 7.88038e-06
518.25 8.00284e-06
518.375 8.12536e-06
518.5 8.12732e-06
518.625 8.12928e-06
518.75 8.18017e-06
518.875 8.23108e-06
519 8.23306e-06
519.125 8.23504e-06
519.25 8.4314e-06
519.375 8.62784e-06
519.5 8.62992e-06
519.625 8.63199e-06
519.75 8.82078e-06
519.875 9.00965e-06
520 9.01182e-06
520.125 9.01399e-06
520.25 9.08297e-06
520.375 9.15198e-06
520.5 9.15418e-06
520.625 9.15638e-06
520.75 9.06548e-06
520.875 8.97453e-06
521 8.97669e-06
521.125 8.97884e-06
521.25 8.88379e-06
521.375 8.7887e-06
521.5 8.7908e-06
521.625 8.79291e-06
521.75 8.89594e-06
521.875 8.99901e-06
522 9.00116e-06
522.125 9.00332e-06
522.25 8.92976e-06
522.375 8.85616e-06
522.5 8.85828e-06
522.625 8.8604e-06
522.75 8.84296e-06
522.875 8.82551e-06
523 8.82762e-06
523.125 8.82973e-06
523.25 9.03148e-06
523.375 9.23332e-06
523.5 9.23553e-06
523.625 9.23773e-06
523.75 9.326e-06
523.875 9.41431e-06
524 9.41656e-06
524.125 9.41881e-06
524.25 9.47874e-06
524.375 9.53869e-06
524.5 9.54097e-06
524.625 9.54324e-06
524.75 9.47469e-06
524.875 9.40611e-06
525 9.40835e-06
525.125 9.41059e-06
525.25 9.32937e-06
525.375 9.24811e-06
525.5 9.25031e-06
525.625 9.25251e-06
525.75 9.23226e-06
525.875 9.212e-06
526 9.21419e-06
526.125 9.21638e-06
526.25 8.96316e-06
526.375 8.70981e-06
526.5 8.71188e-06
526.625 8.71394e-06
526.75 8.49822e-06
526.875 8.2824e-06
527 8.28436e-06
527.125 8.28633e-06
527.25 8.45127e-06
527.375 8.61628e-06
527.5 8.61832e-06
527.625 8.62037e-06
527.75 8.94264e-06
527.875 9.26506e-06
528 9.26726e-06
528.125 9.26945e-06
528.25 9.41427e-06
528.375 9.55916e-06
528.5 9.56142e-06
528.625 9.56368e-06
528.75 9.71973e-06
528.875 9.87585e-06
529 9.87818e-06
529.125 9.88051e-06
529.25 9.8585e-06
529.375 9.83648e-06
529.5 9.8388e-06
529.625 9.84112e-06
529.75 9.80202e-06
529.875 9.76289e-06
530 9.7652e-06
530.125 9.7675e-06
530.25 9.79492e-06
530.375 9.82236e-06
530.5 9.82468e-06
530.625 9.82699e-06
530.75 9.9759e-06
530.875 1.01249e-05
531 1.01273e-05
531.125 1.01296e-05
531.25 1.0023e-05
531.375 9.91629e-06
531.5 9.91862e-06
531.625 9.92096e-06
531.75 9.89117e-06
531.875 9.86138e-06
532 9.86369e-06
532.125 9.86601e-06
532.25 9.79168e-06
532.375 9.71732e-06
532.5 9.7196e-06
532.625 9.72188e-06
532.75 9.59248e-06
532.875 9.46301e-06
533 9.46523e-06
533.125 9.46745e-06
533.25 9.5008e-06
533.375 9.53415e-06
533.5 9.53639e-06
533.625 9.53862e-06
533.75 9.54824e-06
533.875 9.55786e-06
534 9.5601e-06
534.125 9.56233e-06
534.25 9.59196e-06
534.375 9.6216e-06
534.5 9.62385e-06
534.625 9.6261e-06
534.75 9.71346e-06
534.875 9.80087e-06
535 9.80316e-06
535.125 9.80545e-06
535.25 9.96979e-06
535.375 1.01342e-05
535.5 1.01366e-05
535.625 1.01389e-05
535.75 1.01731e-05
535.875 1.02073e-05
536 1.02097e-05
536.125 1.0212e-05
536.25 1.01279e-05
536.375 1.00437e-05
536.5 1.00461e-05
536.625 1.00484e-05
536.75 9.95127e-06
536.875 9.85407e-06
537 9.85636e-06
537.125 9.85866e-06
537.25 9.80052e-06
537.375 9.74235e-06
537.5 9.74461e-06
537.625 9.74688e-06
537.75 9.75447e-06
537.875 9.76206e-06
538 9.76433e-06
538.125 9.7666e-06
538.25 9.95963e-06
538.375 1.01528e-05
538.5 1.01551e-05
538.625 1.01575e-05
538.75 1.01272e-05
538.875 1.0097e-05
539 1.00993e-05
539.125 1.01017e-05
539.25 9.99741e-06
539.375 9.89312e-06
539.5 9.89541e-06
539.625 9.8977e-06
539.75 9.92835e-06
539.875 9.95901e-06
540 9.96132e-06
540.125 9.96362e-06
540.25 9.97729e-06
540.375 9.99096e-06
540.5 9.99327e-06
540.625 9.99558e-06
540.75 1.00282e-05
540.875 1.00609e-05
541 1.00632e-05
541.125 1.00656e-05
541.25 1.00785e-05
541.375 1.00915e-05
541.5 1.00938e-05
541.625 1.00961e-05
541.75 1.00853e-05
541.875 1.00745e-05
542 1.00769e-05
542.125 1.00792e-05
542.25 1.01088e-05
542.375 1.01385e-05
542.5 1.01408e-05
542.625 1.01431e-05
542.75 1.01652e-05
542.875 1.01872e-05
543 1.01896e-05
543.125 1.01919e-05
543.25 1.01322e-05
543.375 1.00725e-05
543.5 1.00748e-05
543.625 1.00771e-05
543.75 1.00462e-05
543.875 1.00153e-05
544 1.00176e-05
544.125 1.00199e-05
544.25 1.02563e-05
544.375 1.04929e-05
544.5 1.04953e-05
544.625 1.04978e-05
544.75 1.04661e-05
544.875 1.04345e-05
545 1.04369e-05
545.125 1.04393e-05
545.25 1.03986e-05
545.375 1.03579e-05
545.5 1.03603e-05
545.625 1.03627e-05
545.75 1.03242e-05
545.875 1.02858e-05
546 1.02882e-05
546.125 1.02905e-05
546.25 1.02521e-05
546.375 1.02137e-05
546.5 1.02161e-05
546.625 1.02184e-05
546.75 1.01827e-05
546.875 1.0147e-05
547 1.01493e-05
547.125 1.01516e-05
547.25 1.0129e-05
547.375 1.01063e-05
547.5 1.01086e-05
547.625 1.01109e-05
547.75 1.00546e-05
547.875 9.99819e-06
548 1.00005e-05
548.125 1.00027e-05
548.25 9.9071e-06
548.375 9.8114e-06
548.5 9.81364e-06
548.625 9.81588e-06
548.75 9.86042e-06
548.875 9.90499e-06
549 9.90725e-06
549.125 9.9095e-06
549.25 1.00624e-05
549.375 1.02154e-05
549.5 1.02177e-05
549.625 1.022e-05
549.75 1.02912e-05
549.875 1.03625e-05
550 1.03648e-05
550.125 1.03672e-05
550.25 1.03115e-05
550.375 1.02558e-05
550.5 1.02581e-05
550.625 1.02604e-05
550.75 1.0196e-05
550.875 1.01316e-05
551 1.01339e-05
551.125 1.01362e-05
551.25 1.01433e-05
551.375 1.01503e-05
551.5 1.01526e-05
551.625 1.01549e-05
551.75 1.01775e-05
551.875 1.02001e-05
552 1.02024e-05
552.125 1.02047e-05
552.25 1.01906e-05
552.375 1.01764e-05
552.5 1.01787e-05
552.625 1.0181e-05
552.75 1.0006e-05
552.875 9.83094e-06
553 9.83316e-06
553.125 9.83538e-06
553.25 9.93292e-06
553.375 1.00305e-05
553.5 1.00328e-05
553.625 1.0035e-05
553.75 1.02101e-05
553.875 1.03852e-05
554 1.03876e-05
554.125 1.03899e-05
554.25 1.05324e-05
554.375 1.0675e-05
554.5 1.06774e-05
554.625 1.06798e-05
554.75 1.05933e-05
554.875 1.05068e-05
555 1.05092e-05
555.125 1.05116e-05
555.25 1.04337e-05
555.375 1.03559e-05
555.5 1.03582e-05
555.625 1.03605e-05
555.75 1.03007e-05
555.875 1.02408e-05
556 1.02431e-05
556.125 1.02454e-05
556.25 1.02439e-05
556.375 1.02425e-05
556.5 1.02448e-05
556.625 1.02471e-05
556.75 1.04008e-05
556.875 1.05546e-05
557 1.0557e-05
557.125 1.05593e-05
557.25 1.05447e-05
557.375 1.05301e-05
557.5 1.05324e-05
557.625 1.05348e-05
557.75 1.04315e-05
557.875 1.03282e-05
558 1.03305e-05
558.125 1.03328e-05
558.25 1.02008e-05
558.375 1.00688e-05
558.5 1.00711e-05
558.625 1.00733e-05
558.75 1.00321e-05
558.875 9.9908e-06
559 9.99303e-06
559.125 9.99527e-06
559.25 1.0004e-05
559.375 1.00126e-05
559.5 1.00149e-05
559.625 1.00171e-05
559.75 1.00311e-05
559.875 1.00451e-05
560 1.00474e-05
560.125 1.00496e-05
560.25 1.00986e-05
560.375 1.01477e-05
560.5 1.015e-05
560.625 1.01522e-05
560.75 1.03457e-05
560.875 1.05393e-05
561 1.05416e-05
561.125 1.0544e-05
561.25 1.06817e-05
561.375 1.08194e-05
561.5 1.08219e-05
561.625 1.08243e-05
561.75 1.0874e-05
561.875 1.09239e-05
562 1.09263e-05
562.125 1.09287e-05
562.25 1.08823e-05
562.375 1.08359e-05
562.5 1.08383e-05
562.625 1.08407e-05
562.75 1.06861e-05
562.875 1.05315e-05
563 1.05338e-05
563.125 1.05362e-05
563.25 1.05514e-05
563.375 1.05666e-05
563.5 1.05689e-05
563.625 1.05713e-05
563.75 1.05461e-05
563.875 1.0521e-05
564 1.05233e-05
564.125 1.05256e-05
564.25 1.04339e-05
564.375 1.03422e-05
564.5 1.03444e-05
564.625 1.03467e-05
564.75 1.04126e-05
564.875 1.04786e-05
565 1.04809e-05
565.125 1.04832e-05
565.25 1.04865e-05
565.375 1.04899e-05
565.5 1.04922e-05
565.625 1.04945e-05
565.75 1.04305e-05
565.875 1.03664e-05
566 1.03687e-05
566.125 1.0371e-05
566.25 1.02575e-05
566.375 1.01439e-05
566.5 1.01461e-05
566.625 1.01484e-05
566.75 1.03575e-05
566.875 1.05667e-05
567 1.0569e-05
567.125 1.05713e-05
567.25 1.06271e-05
567.375 1.06829e-05
567.5 1.06853e-05
567.625 1.06876e-05
567.75 1.07275e-05
567.875 1.07674e-05
568 1.07698e-05
568.125 1.07722e-05
568.25 1.09099e-05
568.375 1.10477e-05
568.5 1.10502e-05
568.625 1.10526e-05
568.75 1.11503e-05
568.875 1.12481e-05
569 1.12505e-05
569.125 1.1253e-05
569.25 1.12189e-05
569.375 1.11848e-05
569.5 1.11873e-05
569.625 1.11897e-05
569.75 1.10655e-05
569.875 1.09412e-05
570 1.09436e-05
570.125 1.0946e-05
570.25 1.07957e-05
570.375 1.06453e-05
570.5 1.06477e-05
570.625 1.065e-05
570.75 1.05759e-05
570.875 1.05017e-05
571 1.0504e-05
571.125 1.05063e-05
571.25 1.05825e-05
571.375 1.06587e-05
571.5 1.0661e-05
571.625 1.06634e-05
571.75 1.08615e-05
571.875 1.10597e-05
572 1.10621e-05
572.125 1.10645e-05
572.25 1.12176e-05
572.375 1.13707e-05
572.5 1.13732e-05
572.625 1.13757e-05
572.75 1.14313e-05
572.875 1.1487e-05
573 1.14895e-05
573.125 1.1492e-05
573.25 1.15355e-05
573.375 1.15791e-05
573.5 1.15816e-05
573.625 1.15841e-05
573.75 1.16393e-05
573.875 1.16945e-05
574 1.16971e-05
574.125 1.16996e-05
574.25 1.14528e-05
574.375 1.1206e-05
574.5 1.12084e-05
574.625 1.12108e-05
574.75 1.11973e-05
574.875 1.11838e-05
575 1.11862e-05
575.125 1.11886e-05
575.25 1.12292e-05
575.375 1.12699e-05
575.5 1.12723e-05
575.625 1.12748e-05
575.75 1.11459e-05
575.875 1.1017e-05
576 1.10194e-05
576.125 1.10217e-05
576.25 1.10521e-05
576.375 1.10825e-05
576.5 1.10849e-05
576.625 1.10873e-05
576.75 1.11899e-05
576.875 1.12925e-05
577 1.1295e-05
577.125 1.12974e-05
577.25 1.14261e-05
577.375 1.15548e-05
577.5 1.15573e-05
577.625 1.15599e-05
577.75 1.15399e-05
577.875 1.152e-05
578 1.15225e-05
578.125 1.1525e-05
578.25 1.14657e-05
578.375 1.14065e-05
578.5 1.14089e-05
578.625 1.14114e-05
578.75 1.13666e-05
578.875 1.13217e-05
579 1.13242e-05
579.125 1.13266e-05
579.25 1.13276e-05
579.375 1.13285e-05
579.5 1.1331e-05
579.625 1.13334e-05
579.75 1.14459e-05
579.875 1.15585e-05
580 1.1561e-05
580.125 1.15635e-05
580.25 1.1504e-05
580.375 1.14445e-05
580.5 1.14469e-05
580.625 1.14494e-05
580.75 1.13087e-05
580.875 1.1168e-05
581 1.11704e-05
581.125 1.11728e-05
581.25 1.11748e-05
581.375 1.11768e-05
581.5 1.11792e-05
581.625 1.11816e-05
581.75 1.12064e-05
581.875 1.12313e-05
582 1.12337e-05
582.125 1.12361e-05
582.25 1.13273e-05
582.375 1.14185e-05
582.5 1.1421e-05
582.625 1.14234e-05
582.75 1.15979e-05
582.875 1.17725e-05
583 1.1775e-05
583.125 1.17775e-05
583.25 1.18952e-05
583.375 1.2013e-05
583.5 1.20156e-05
583.625 1.20182e-05
583.75 1.1918e-05
583.875 1.18177e-05
584 1.18202e-05
584.125 1.18228e-05
584.25 1.16668e-05
584.375 1.15108e-05
584.5 1.15133e-05
584.625 1.15157e-05
584.75 1.16113e-05
584.875 1.1707e-05
585 1.17095e-05
585.125 1.1712e-05
585.25 1.17733e-05
585.375 1.18345e-05
585.5 1.18371e-05
585.625 1.18396e-05
585.75 1.18626e-05
585.875 1.18856e-05
586 1.18881e-05
586.125 1.18906e-05
586.25 1.18717e-05
586.375 1.18528e-05
586.5 1.18553e-05
586.625 1.18579e-05
586.75 1.18428e-05
586.875 1.18276e-05
587 1.18302e-05
587.125 1.18327e-05
587.25 1.17972e-05
587.375 1.17617e-05
587.5 1.17642e-05
587.625 1.17667e-05
587.75 1.17169e-05
587.875 1.1667e-05
588 1.16695e-05
588.125 1.1672e-05
588.25 1.16159e-05
588.375 1.15598e-05
588.5 1.15623e-05
588.625 1.15647e-05
588.75 1.10574e-05
588.875 1.05499e-05
589 1.05522e-05
589.125 1.05544e-05
589.25 1.0158e-05
589.375 9.76144e-06
589.5 9.76351e-06
589.625 9.76558e-06
589.75 9.7189e-06
589.875 9.67219e-06
590 9.67424e-06
590.125 9.67629e-06
590.25 1.00849e-05
590.375 1.04938e-05
590.5 1.0496e-05
590.625 1.04982e-05
590.75 1.06939e-05
590.875 1.08897e-05
591 1.0892e-05
591.125 1.08943e-05
591.25 1.09189e-05
591.375 1.09436e-05
591.5 1.09459e-05
591.625 1.09482e-05
591.75 1.09835e-05
591.875 1.10189e-05
592 1.10212e-05
592.125 1.10235e-05
592.25 1.09252e-05
592.375 1.08268e-05
592.5 1.08291e-05
592.625 1.08314e-05
592.75 1.07762e-05
592.875 1.0721e-05
593 1.07233e-05
593.125 1.07255e-05
593.25 1.08744e-05
593.375 1.10234e-05
593.5 1.10258e-05
593.625 1.10281e-05
593.75 1.11904e-05
593.875 1.13527e-05
594 1.13551e-05
594.125 1.13575e-05
594.25 1.14229e-05
594.375 1.14884e-05
594.5 1.14908e-05
594.625 1.14933e-05
594.75 1.14453e-05
594.875 1.13972e-05
595 1.13996e-05
595.125 1.1402e-05
595.25 1.13121e-05
595.375 1.12221e-05
595.5 1.12244e-05
595.625 1.12268e-05
595.75 1.13153e-05
595.875 1.14039e-05
596 1.14063e-05
596.125 1.14087e-05
596.25 1.15557e-05
596.375 1.17027e-05
596.5 1.17052e-05
596.625 1.17076e-05
596.75 1.16365e-05
596.875 1.15654e-05
597 1.15678e-05
597.125 1.15702e-05
597.25 1.14845e-05
597.375 1.13988e-05
597.5 1.14012e-05
597.625 1.14036e-05
597.75 1.12665e-05
597.875 1.11294e-05
598 1.11318e-05
598.125 1.11341e-05
598.25 1.09024e-05
598.375 1.06705e-05
598.5 1.06728e-05
598.625 1.0675e-05
598.75 1.08552e-05
598.875 1.10355e-05
599 1.10378e-05
599.125 1.10401e-05
599.25 1.11086e-05
599.375 1.1177e-05
599.5 1.11794e-05
599.625 1.11817e-05
599.75 1.10729e-05
599.875 1.09641e-05
600 1.09664e-05
600.125 1.09687e-05
600.25 1.10505e-05
600.375 1.11323e-05
600.5 1.11346e-05
600.625 1.11369e-05
600.75 1.10303e-05
600.875 1.09236e-05
601 1.09259e-05
601.125 1.09281e-05
601.25 1.07494e-05
601.375 1.05706e-05
601.5 1.05728e-05
601.625 1.05749e-05
601.75 1.0727e-05
601.875 1.08791e-05
602 1.08813e-05
602.125 1.08836e-05
602.25 1.09884e-05
602.375 1.10933e-05
602.5 1.10956e-05
602.625 1.10979e-05
602.75 1.11379e-05
602.875 1.1178e-05
603 1.11803e-05
603.125 1.11826e-05
603.25 1.10974e-05
603.375 1.10122e-05
603.5 1.10145e-05
603.625 1.10168e-05
603.75 1.11026e-05
603.875 1.11885e-05
604 1.11908e-05
604.125 1.11931e-05
604.25 1.12877e-05
604.375 1.13822e-05
604.5 1.13846e-05
604.625 1.13869e-05
604.75 1.14342e-05
604.875 1.14815e-05
605 1.14839e-05
605.125 1.14863e-05
605.25 1.16431e-05
605.375 1.18e-05
605.5 1.18024e-05
605.625 1.18048e-05
605.75 1.18328e-05
605.875 1.18607e-05
606 1.18632e-05
606.125 1.18656e-05
606.25 1.17424e-05
606.375 1.16192e-05
606.5 1.16216e-05
606.625 1.1624e-05
606.75 1.14802e-05
606.875 1.13363e-05
607 1.13387e-05
607.125 1.1341e-05
607.25 1.132e-05
607.375 1.12989e-05
607.5 1.13012e-05
607.625 1.13036e-05
607.75 1.13463e-05
607.875 1.1389e-05
608 1.13913e-05
608.125 1.13937e-05
608.25 1.12269e-05
608.375 1.10601e-05
608.5 1.10624e-05
608.625 1.10647e-05
608.75 1.12038e-05
608.875 1.1343e-05
609 1.13453e-05
609.125 1.13477e-05
609.25 1.15247e-05
609.375 1.17018e-05
609.5 1.17042e-05
609.625 1.17066e-05
609.75 1.14109e-05
609.875 1.1115e-05
610 1.11173e-05
610.125 1.11196e-05
610.25 1.12125e-05
610.375 1.13055e-05
610.5 1.13079e-05
610.625 1.13102e-05
610.75 1.14986e-05
610.875 1.16871e-05
611 1.16895e-05
611.125 1.16919e-05
611.25 1.1777e-05
611.375 1.18622e-05
611.5 1.18647e-05
611.625 1.18671e-05
611.75 1.18589e-05
611.875 1.18506e-05
612 1.1853e-05
612.125 1.18555e-05
612.25 1.1805e-05
612.375 1.17546e-05
612.5 1.1757e-05
612.625 1.17594e-05
612.75 1.16696e-05
612.875 1.15798e-05
613 1.15822e-05
613.125 1.15845e-05
613.25 1.14747e-05
613.375 1.13649e-05
613.5 1.13672e-05
613.625 1.13695e-05
613.75 1.134e-05
613.875 1.13104e-05
614 1.13127e-05
614.125 1.1315e-05
614.25 1.14032e-05
614.375 1.14915e-05
614.5 1.14938e-05
614.625 1.14961e-05
614.75 1.13509e-05
614.875 1.12056e-05
615 1.12079e-05
615.125 1.12102e-05
615.25 1.11264e-05
615.375 1.10426e-05
615.5 1.10449e-05
615.625 1.10471e-05
615.75 1.1049e-05
615.875 1.10508e-05
616 1.1053e-05
616.125 1.10553e-05
616.25 1.09008e-05
616.375 1.07462e-05
616.5 1.07483e-05
616.625 1.07505e-05
616.75 1.05964e-05
616.875 1.04422e-05
617 1.04443e-05
617.125 1.04464e-05
617.25 1.03156e-05
617.375 1.01848e-05
617.5 1.01868e-05
617.625 1.01889e-05
617.75 1.05734e-05
617.875 1.09581e-05
618 1.09604e-05
618.125 1.09626e-05
618.25 1.11478e-05
618.375 1.13331e-05
618.5 1.13354e-05
618.625 1.13377e-05
618.75 1.13739e-05
618.875 1.14102e-05
619 1.14125e-05
619.125 1.14148e-05
619.25 1.15259e-05
619.375 1.1637e-05
619.5 1.16393e-05
619.625 1.16416e-05
619.75 1.16925e-05
619.875 1.17433e-05
620 1.17457e-05
620.125 1.1748e-05
620.25 1.17285e-05
620.375 1.1709e-05
620.5 1.17114e-05
620.625 1.17138e-05
620.75 1.14591e-05
620.875 1.12042e-05
621 1.12065e-05
621.125 1.12088e-05
621.25 1.11257e-05
621.375 1.10426e-05
621.5 1.10448e-05
621.625 1.10471e-05
621.75 1.1063e-05
621.875 1.10789e-05
622 1.10812e-05
622.125 1.10834e-05
622.25 1.10746e-05
622.375 1.10657e-05
622.5 1.10679e-05
622.625 1.10701e-05
622.75 1.10642e-05
622.875 1.10583e-05
623 1.10606e-05
623.125 1.10628e-05
623.25 1.10565e-05
623.375 1.10502e-05
623.5 1.10524e-05
623.625 1.10546e-05
623.75 1.10373e-05
623.875 1.102e-05
624 1.10222e-05
624.125 1.10244e-05
624.25 1.1026e-05
624.375 1.10276e-05
624.5 1.10298e-05
624.625 1.1032e-05
624.75 1.10658e-05
624.875 1.10995e-05
625 1.11018e-05
625.125 1.1104e-05
625.25 1.1252e-05
625.375 1.14001e-05
625.5 1.14024e-05
625.625 1.14047e-05
625.75 1.14723e-05
625.875 1.154e-05
626 1.15423e-05
626.125 1.15446e-05
626.25 1.15819e-05
626.375 1.16192e-05
626.5 1.16215e-05
626.625 1.16238e-05
626.75 1.17099e-05
626.875 1.1796e-05
627 1.17983e-05
627.125 1.18007e-05
627.25 1.18851e-05
627.375 1.19696e-05
627.5 1.1972e-05
627.625 1.19744e-05
627.75 1.20376e-05
627.875 1.21008e-05
628 1.21032e-05
628.125 1.21056e-05
628.25 1.20638e-05
628.375 1.2022e-05
628.5 1.20244e-05
628.625 1.20268e-05
628.75 1.20902e-05
628.875 1.21536e-05
629 1.2156e-05
629.125 1.21585e-05
629.25 1.2256e-05
629.375 1.23535e-05
629.5 1.2356e-05
629.625 1.23584e-05
629.75 1.23417e-05
629.875 1.2325e-05
630 1.23274e-05
630.125 1.23298e-05
630.25 1.22805e-05
630.375 1.22311e-05
630.5 1.22335e-05
630.625 1.22359e-05
630.75 1.21694e-05
630.875 1.21029e-05
631 1.21053e-05
631.125 1.21077e-05
631.25 1.20469e-05
631.375 1.19861e-05
631.5 1.19885e-05
631.625 1.19909e-05
631.75 1.20178e-05
631.875 1.20447e-05
632 1.20471e-05
632.125 1.20495e-05
632.25 1.21245e-05
632.375 1.21996e-05
632.5 1.2202e-05
632.625 1.22044e-05
632.75 1.22355e-05
632.875 1.22666e-05
633 1.2269e-05
633.125 1.22715e-05
633.25 1.22176e-05
633.375 1.21636e-05
633.5 1.2166e-05
633.625 1.21684e-05
633.75 1.2067e-05
633.875 1.19655e-05
634 1.19679e-05
634.125 1.19703e-05
634.25 1.20057e-05
634.375 1.20411e-05
634.5 1.20435e-05
634.625 1.20459e-05
634.75 1.20804e-05
634.875 1.2115e-05
635 1.21174e-05
635.125 1.21197e-05
635.25 1.2153e-05
635.375 1.21862e-05
635.5 1.21886e-05
635.625 1.2191e-05
635.75 1.2207e-05
635.875 1.2223e-05
636 1.22254e-05
636.125 1.22278e-05
636.25 1.22554e-05
636.375 1.2283e-05
636.5 1.22854e-05
636.625 1.22878e-05
636.75 1.23264e-05
636.875 1.23651e-05
637 1.23675e-05
637.125 1.23699e-05
637.25 1.24951e-05
637.375 1.26202e-05
637.5 1.26227e-05
637.625 1.26252e-05
637.75 1.27075e-05
637.875 1.27899e-05
638 1.27924e-05
638.125 1.2795e-05
638.25 1.28258e-05
638.375 1.28566e-05
638.5 1.28592e-05
638.625 1.28617e-05
638.75 1.27666e-05
638.875 1.26715e-05
639 1.2674e-05
639.125 1.26765e-05
639.25 1.26276e-05
639.375 1.25787e-05
639.5 1.25812e-05
639.625 1.25837e-05
639.75 1.26173e-05
639.875 1.26509e-05
640 1.26534e-05
640.125 1.26559e-05
640.25 1.26371e-05
640.375 1.26183e-05
640.5 1.26208e-05
640.625 1.26233e-05
640.75 1.25891e-05
640.875 1.2555e-05
641 1.25574e-05
641.125 1.25599e-05
641.25 1.25108e-05
641.375 1.24618e-05
641.5 1.24642e-05
641.625 1.24666e-05
641.75 1.24849e-05
641.875 1.25032e-05
642 1.25057e-05
642.125 1.25081e-05
642.25 1.25233e-05
642.375 1.25386e-05
642.5 1.25411e-05
642.625 1.25435e-05
642.75 1.25031e-05
642.875 1.24628e-05
643 1.24652e-05
643.125 1.24676e-05
643.25 1.25161e-05
643.375 1.25645e-05
643.5 1.2567e-05
643.625 1.25694e-05
643.75 1.26403e-05
643.875 1.27112e-05
644 1.27137e-05
644.125 1.27162e-05
644.25 1.2736e-05
644.375 1.27558e-05
644.5 1.27583e-05
644.625 1.27608e-05
644.75 1.27302e-05
644.875 1.26997e-05
645 1.27022e-05
645.125 1.27046e-05
645.25 1.26616e-05
645.375 1.26186e-05
645.5 1.26211e-05
645.625 1.26235e-05
645.75 1.27336e-05
645.875 1.28436e-05
646 1.28461e-05
646.125 1.28486e-05
646.25 1.28148e-05
646.375 1.2781e-05
646.5 1.27835e-05
646.625 1.2786e-05
646.75 1.26335e-05
646.875 1.2481e-05
647 1.24834e-05
647.125 1.24858e-05
647.25 1.26005e-05
647.375 1.27153e-05
647.5 1.27177e-05
647.625 1.27202e-05
647.75 1.27601e-05
647.875 1.27999e-05
648 1.28024e-05
648.125 1.28049e-05
648.25 1.27525e-05
648.375 1.27001e-05
648.5 1.27026e-05
648.625 1.2705e-05
648.75 1.25961e-05
648.875 1.24872e-05
649 1.24896e-05
649.125 1.2492e-05
649.25 1.2408e-05
649.375 1.2324e-05
649.5 1.23264e-05
649.625 1.23287e-05
649.75 1.23051e-05
649.875 1.22815e-05
650 1.22839e-05
650.125 1.22863e-05
650.25 1.23785e-05
650.375 1.24709e-05
650.5 1.24732e-05
650.625 1.24756e-05
650.75 1.25824e-05
650.875 1.26892e-05
651 1.26917e-05
651.125 1.26941e-05
651.25 1.27433e-05
651.375 1.27926e-05
651.5 1.2795e-05
651.625 1.27975e-05
651.75 1.28189e-05
651.875 1.28402e-05
652 1.28427e-05
652.125 1.28451e-05
652.25 1.28579e-05
652.375 1.28706e-05
652.5 1.28731e-05
652.625 1.28756e-05
652.75 1.29319e-05
652.875 1.29882e-05
653 1.29907e-05
653.125 1.29932e-05
653.25 1.30661e-05
653.375 1.3139e-05
653.5 1.31416e-05
653.625 1.31441e-05
653.75 1.32309e-05
653.875 1.33178e-05
654 1.33203e-05
654.125 1.33229e-05
654.25 1.33695e-05
654.375 1.34161e-05
654.5 1.34186e-05
654.625 1.34212e-05
654.75 1.343e-05
654.875 1.34388e-05
655 1.34414e-05
655.125 1.3444e-05
655.25 1.33998e-05
655.375 1.33556e-05
655.5 1.33581e-05
655.625 1.33606e-05
655.75 1.38176e-05
655.875 1.42747e-05
656 1.42774e-05
656.125 1.42802e-05
656.25 1.45546e-05
656.375 1.48291e-05
656.5 1.4832e-05
656.625 1.48348e-05
656.75 1.43614e-05
656.875 1.38878e-05
657 1.38905e-05
657.125 1.38931e-05
657.25 1.37791e-05
657.375 1.36651e-05
657.5 1.36677e-05
657.625 1.36703e-05
657.75 1.37464e-05
657.875 1.38225e-05
658 1.38251e-05
658.125 1.38277e-05
658.25 1.41493e-05
658.375 1.44711e-05
658.5 1.44738e-05
658.625 1.44766e-05
658.75 1.426e-05
658.875 1.40434e-05
659 1.40461e-05
659.125 1.40487e-05
659.25 1.33845e-05
659.375 1.27201e-05
659.5 1.27225e-05
659.625 1.27249e-05
659.75 1.26521e-05
659.875 1.25792e-05
660 1.25815e-05
660.125 1.25839e-05
660.25 1.25876e-05
660.375 1.25912e-05
660.5 1.25936e-05
660.625 1.25959e-05
660.75 1.26891e-05
660.875 1.27824e-05
661 1.27848e-05
661.125 1.27872e-05
661.25 1.28684e-05
661.375 1.29496e-05
661.5 1.29521e-05
661.625 1.29545e-05
661.75 1.29812e-05
661.875 1.30079e-05
662 1.30103e-05
662.125 1.30128e-05
662.25 1.28567e-05
662.375 1.27006e-05
662.5 1.2703e-05
662.625 1.27054e-05
662.75 1.26371e-05
662.875 1.25687e-05
663 1.25711e-05
663.125 1.25734e-05
663.25 1.25592e-05
663.375 1.25449e-05
663.5 1.25472e-05
663.625 1.25496e-05
663.75 1.26079e-05
663.875 1.26663e-05
664 1.26687e-05
664.125 1.26711e-05
664.25 1.27031e-05
664.375 1.27351e-05
664.5 1.27375e-05
664.625 1.27399e-05
664.75 1.27407e-05
664.875 1.27414e-05
665 1.27438e-05
665.125 1.27462e-05
665.25 1.27529e-05
665.375 1.27595e-05
665.5 1.27619e-05
665.625 1.27643e-05
665.75 1.27592e-05
665.875 1.2754e-05
666 1.27564e-05
666.125 1.27588e-05
666.25 1.27195e-05
666.375 1.26802e-05
666.5 1.26826e-05
666.625 1.2685e-05
666.75 1.27186e-05
666.875 1.27523e-05
667 1.27547e-05
667.125 1.27571e-05
667.25 1.28125e-05
667.375 1.28679e-05
667.5 1.28703e-05
667.625 1.28728e-05
667.75 1.27701e-05
667.875 1.26675e-05
668 1.26698e-05
668.125 1.26722e-05
668.25 1.26502e-05
668.375 1.26282e-05
668.5 1.26305e-05
668.625 1.26329e-05
668.75 1.26992e-05
668.875 1.27655e-05
669 1.27679e-05
669.125 1.27702e-05
669.25 1.27457e-05
669.375 1.27211e-05
669.5 1.27235e-05
669.625 1.27259e-05
669.75 1.27103e-05
669.875 1.26948e-05
670 1.26972e-05
670.125 1.26995e-05
670.25 1.27421e-05
670.375 1.27847e-05
670.5 1.27871e-05
670.625 1.27895e-05
670.75 1.29303e-05
670.875 1.30712e-05
671 1.30737e-05
671.125 1.30761e-05
671.25 1.32532e-05
671.375 1.34303e-05
671.5 1.34328e-05
671.625 1.34353e-05
671.75 1.34188e-05
671.875 1.34024e-05
672 1.34049e-05
672.125 1.34074e-05
672.25 1.34437e-05
672.375 1.34801e-05
672.5 1.34826e-05
672.625 1.34851e-05
672.75 1.35857e-05
672.875 1.36863e-05
673 1.36888e-05
673.125 1.36914e-05
673.25 1.35617e-05
673.375 1.3432e-05
673.5 1.34345e-05
673.625 1.3437e-05
673.75 1.32855e-05
673.875 1.3134e-05
674 1.31365e-05
674.125 1.31389e-05
674.25 1.30617e-05
674.375 1.29844e-05
674.5 1.29868e-05
674.625 1.29892e-05
674.75 1.28836e-05
674.875 1.27779e-05
675 1.27803e-05
675.125 1.27826e-05
675.25 1.2659e-05
675.375 1.25354e-05
675.5 1.25377e-05
675.625 1.25401e-05
675.75 1.26083e-05
675.875 1.26765e-05
676 1.26788e-05
676.125 1.26812e-05
676.25 1.27229e-05
676.375 1.27645e-05
676.5 1.27669e-05
676.625 1.27693e-05
676.75 1.27658e-05
676.875 1.27623e-05
677 1.27646e-05
677.125 1.2767e-05
677.25 1.27909e-05
677.375 1.28148e-05
677.5 1.28172e-05
677.625 1.28196e-05
677.75 1.28538e-05
677.875 1.28881e-05
678 1.28905e-05
678.125 1.28928e-05
678.25 1.29367e-05
678.375 1.29806e-05
678.5 1.29829e-05
678.625 1.29853e-05
678.75 1.29845e-05
678.875 1.29836e-05
679 1.2986e-05
679.125 1.29884e-05
679.25 1.29444e-05
679.375 1.29004e-05
679.5 1.29027e-05
679.625 1.29051e-05
679.75 1.29341e-05
679.875 1.29631e-05
680 1.29655e-05
680.125 1.29679e-05
680.25 1.3002e-05
680.375 1.30361e-05
680.5 1.30385e-05
680.625 1.30409e-05
680.75 1.30614e-05
680.875 1.3082e-05
681 1.30844e-05
681.125 1.30868e-05
681.25 1.31217e-05
681.375 1.31566e-05
681.5 1.3159e-05
681.625 1.31614e-05
681.75 1.32048e-05
681.875 1.32483e-05
682 1.32507e-05
682.125 1.32531e-05
682.25 1.31466e-05
682.375 1.30401e-05
682.5 1.30425e-05
682.625 1.30449e-05
682.75 1.298e-05
682.875 1.29151e-05
683 1.29174e-05
683.125 1.29198e-05
683.25 1.29321e-05
683.375 1.29445e-05
683.5 1.29469e-05
683.625 1.29492e-05
683.75 1.29149e-05
683.875 1.28806e-05
684 1.2883e-05
684.125 1.28853e-05
684.25 1.28378e-05
684.375 1.27902e-05
684.5 1.27925e-05
684.625 1.27949e-05
684.75 1.28004e-05
684.875 1.2806e-05
685 1.28083e-05
685.125 1.28107e-05
685.25 1.28172e-05
685.375 1.28237e-05
685.5 1.28261e-05
685.625 1.28284e-05
685.75 1.28362e-05
685.875 1.28439e-05
686 1.28463e-05
686.125 1.28486e-05
686.25 1.28773e-05
686.375 1.29061e-05
686.5 1.29084e-05
686.625 1.29108e-05
686.75 1.29456e-05
686.875 1.29804e-05
687 1.29828e-05
687.125 1.29851e-05
687.25 1.30244e-05
687.375 1.30637e-05
687.5 1.30661e-05
687.625 1.30685e-05
687.75 1.3082e-05
687.875 1.30956e-05
688 1.30979e-05
688.125 1.31003e-05
688.25 1.3089e-05
688.375 1.30778e-05
688.5 1.30801e-05
688.625 1.30825e-05
688.75 1.31712e-05
688.875 1.32599e-05
689 1.32623e-05
689.125 1.32647e-05
689.25 1.33572e-05
689.375 1.34496e-05
689.5 1.34521e-05
689.625 1.34545e-05
689.75 1.35013e-05
689.875 1.35481e-05
690 1.35505e-05
690.125 1.3553e-05
690.25 1.36242e-05
690.375 1.36955e-05
690.5 1.36979e-05
690.625 1.37004e-05
690.75 1.37909e-05
690.875 1.38814e-05
691 1.38839e-05
691.125 1.38864e-05
691.25 1.37984e-05
691.375 1.37104e-05
691.5 1.37129e-05
691.625 1.37154e-05
691.75 1.36248e-05
691.875 1.35341e-05
692 1.35366e-05
692.125 1.3539e-05
692.25 1.34965e-05
692.375 1.3454e-05
692.5 1.34565e-05
692.625 1.34589e-05
692.75 1.34452e-05
692.875 1.34315e-05
693 1.34339e-05
693.125 1.34363e-05
693.25 1.34425e-05
693.375 1.34487e-05
693.5 1.34512e-05
693.625 1.34536e-05
693.75 1.35041e-05
693.875 1.35546e-05
694 1.35571e-05
694.125 1.35595e-05
694.25 1.35874e-05
694.375 1.36154e-05
694.5 1.36178e-05
694.625 1.36203e-05
694.75 1.35782e-05
694.875 1.35361e-05
695 1.35385e-05
695.125 1.3541e-05
695.25 1.35706e-05
695.375 1.36001e-05
695.5 1.36026e-05
695.625 1.3605e-05
695.75 1.36812e-05
695.875 1.37575e-05
696 1.37599e-05
696.125 1.37624e-05
696.25 1.37883e-05
696.375 1.38141e-05
696.5 1.38166e-05
696.625 1.38191e-05
696.75 1.38144e-05
696.875 1.38098e-05
697 1.38123e-05
697.125 1.38147e-05
697.25 1.37371e-05
697.375 1.36594e-05
697.5 1.36619e-05
697.625 1.36643e-05
697.75 1.36361e-05
697.875 1.36079e-05
698 1.36103e-05
698.125 1.36128e-05
698.25 1.36173e-05
698.375 1.36218e-05
698.5 1.36243e-05
698.625 1.36267e-05
698.75 1.36847e-05
698.875 1.37427e-05
699 1.37452e-05
699.125 1.37476e-05
699.25 1.37756e-05
699.375 1.38035e-05
699.5 1.3806e-05
699.625 1.38085e-05
699.75 1.37376e-05
699.875 1.36668e-05
700 1.36692e-05
700.125 1.36717e-05
700.25 1.36671e-05
700.375 1.36625e-05
700.5 1.3665e-05
700.625 1.36674e-05
700.75 1.37109e-05
700.875 1.37543e-05
701 1.37568e-05
701.125 1.37592e-05
701.25 1.37248e-05
701.375 1.36903e-05
701.5 1.36928e-05
701.625 1.36952e-05
701.75 1.36688e-05
701.875 1.36425e-05
702 1.36449e-05
702.125 1.36473e-05
702.25 1.36788e-05
702.375 1.37103e-05
702.5 1.37128e-05
702.625 1.37152e-05
702.75 1.37267e-05
702.875 1.37382e-05
703 1.37406e-05
703.125 1.37431e-05
703.25 1.37375e-05
703.375 1.3732e-05
703.5 1.37344e-05
703.625 1.37369e-05
703.75 1.38591e-05
703.875 1.39813e-05
704 1.39838e-05
704.125 1.39863e-05
704.25 1.40858e-05
704.375 1.41853e-05
704.5 1.41878e-05
704.625 1.41904e-05
704.75 1.4074e-05
704.875 1.39577e-05
705 1.39601e-05
705.125 1.39626e-05
705.25 1.38263e-05
705.375 1.369e-05
705.5 1.36924e-05
705.625 1.36949e-05
705.75 1.35372e-05
705.875 1.33794e-05
706 1.33818e-05
706.125 1.33842e-05
706.25 1.331e-05
706.375 1.32358e-05
706.5 1.32382e-05
706.625 1.32405e-05
706.75 1.31988e-05
706.875 1.31571e-05
707 1.31594e-05
707.125 1.31618e-05
707.25 1.32154e-05
707.375 1.3269e-05
707.5 1.32714e-05
707.625 1.32737e-05
707.75 1.32703e-05
707.875 1.32669e-05
708 1.32692e-05
708.125 1.32716e-05
708.25 1.31847e-05
708.375 1.30977e-05
708.5 1.31e-05
708.625 1.31023e-05
708.75 1.30394e-05
708.875 1.29764e-05
709 1.29787e-05
709.125 1.2981e-05
709.25 1.29283e-05
709.375 1.28755e-05
709.5 1.28778e-05
709.625 1.28801e-05
709.75 1.28569e-05
709.875 1.28338e-05
710 1.2836e-05
710.125 1.28383e-05
710.25 1.28387e-05
710.375 1.2839e-05
710.5 1.28413e-05
710.625 1.28436e-05
710.75 1.28962e-05
710.875 1.29489e-05
711 1.29512e-05
711.125 1.29535e-05
711.25 1.29807e-05
711.375 1.30079e-05
711.5 1.30102e-05
711.625 1.30125e-05
711.75 1.30232e-05
711.875 1.3034e-05
712 1.30363e-05
712.125 1.30386e-05
712.25 1.2922e-05
712.375 1.28053e-05
712.5 1.28076e-05
712.625 1.28098e-05
712.75 1.27112e-05
712.875 1.26125e-05
713 1.26147e-05
713.125 1.26169e-05
713.25 1.26456e-05
713.375 1.26743e-05
713.5 1.26765e-05
713.625 1.26787e-05
713.75 1.26867e-05
713.875 1.26947e-05
714 1.26969e-05
714.125 1.26991e-05
714.25 1.26855e-05
714.375 1.26719e-05
714.5 1.26741e-05
714.625 1.26763e-05
714.75 1.27667e-05
714.875 1.28571e-05
715 1.28593e-05
715.125 1.28616e-05
715.25 1.29726e-05
715.375 1.30838e-05
715.5 1.30861e-05
715.625 1.30884e-05
715.75 1.30769e-05
715.875 1.30654e-05
716 1.30677e-05
716.125 1.307e-05
716.25 1.30433e-05
716.375 1.30166e-05
716.5 1.30189e-05
716.625 1.30212e-05
716.75 1.29666e-05
716.875 1.2912e-05
717 1.29142e-05
717.125 1.29165e-05
717.25 1.29427e-05
717.375 1.29689e-05
717.5 1.29712e-05
717.625 1.29735e-05
717.75 1.3046e-05
717.875 1.31185e-05
718 1.31208e-05
718.125 1.31231e-05
718.25 1.29672e-05
718.375 1.28112e-05
718.5 1.28134e-05
718.625 1.28156e-05
718.75 1.26963e-05
718.875 1.25769e-05
719 1.25791e-05
719.125 1.25813e-05
719.25 1.26967e-05
719.375 1.28121e-05
719.5 1.28143e-05
719.625 1.28165e-05
719.75 1.29148e-05
719.875 1.3013e-05
720 1.30153e-05
720.125 1.30175e-05
720.25 1.30967e-05
720.375 1.31759e-05
720.5 1.31781e-05
720.625 1.31804e-05
720.75 1.30985e-05
720.875 1.30164e-05
721 1.30187e-05
721.125 1.3021e-05
721.25 1.28904e-05
721.375 1.27598e-05
721.5 1.2762e-05
721.625 1.27642e-05
721.75 1.28762e-05
721.875 1.29883e-05
722 1.29906e-05
722.125 1.29928e-05
722.25 1.30933e-05
722.375 1.31938e-05
722.5 1.31961e-05
722.625 1.31983e-05
722.75 1.32709e-05
722.875 1.33435e-05
723 1.33458e-05
723.125 1.33481e-05
723.25 1.33636e-05
723.375 1.33791e-05
723.5 1.33814e-05
723.625 1.33837e-05
723.75 1.33547e-05
723.875 1.33257e-05
724 1.3328e-05
724.125 1.33303e-05
724.25 1.33324e-05
724.375 1.33346e-05
724.5 1.33369e-05
724.625 1.33392e-05
724.75 1.33487e-05
724.875 1.33582e-05
725 1.33605e-05
725.125 1.33628e-05
725.25 1.33817e-05
725.375 1.34006e-05
725.5 1.34029e-05
725.625 1.34052e-05
725.75 1.34424e-05
725.875 1.34796e-05
726 1.3482e-05
726.125 1.34843e-05
726.25 1.35547e-05
726.375 1.36251e-05
726.5 1.36275e-05
726.625 1.36298e-05
726.75 1.36747e-05
726.875 1.37196e-05
727 1.3722e-05
727.125 1.37243e-05
727.25 1.37534e-05
727.375 1.37825e-05
727.5 1.37849e-05
727.625 1.37872e-05
727.75 1.36628e-05
727.875 1.35383e-05
728 1.35406e-05
728.125 1.3543e-05
728.25 1.34259e-05
728.375 1.33087e-05
728.5 1.3311e-05
728.625 1.33133e-05
728.75 1.3386e-05
728.875 1.34588e-05
729 1.34611e-05
729.125 1.34634e-05
729.25 1.35329e-05
729.375 1.36023e-05
729.5 1.36047e-05
729.625 1.3607e-05
729.75 1.36712e-05
729.875 1.37354e-05
730 1.37377e-05
730.125 1.37401e-05
730.25 1.38463e-05
730.375 1.39525e-05
730.5 1.39549e-05
730.625 1.39573e-05
730.75 1.40873e-05
730.875 1.42173e-05
731 1.42198e-05
731.125 1.42222e-05
731.25 1.41624e-05
731.375 1.41025e-05
731.5 1.41049e-05
731.625 1.41074e-05
731.75 1.40362e-05
731.875 1.39651e-05
732 1.39675e-05
732.125 1.39699e-05
732.25 1.39761e-05
732.375 1.39824e-05
732.5 1.39848e-05
732.625 1.39872e-05
732.75 1.40036e-05
732.875 1.402e-05
733 1.40224e-05
733.125 1.40248e-05
733.25 1.40576e-05
733.375 1.40903e-05
733.5 1.40927e-05
733.625 1.40952e-05
733.75 1.41317e-05
733.875 1.41682e-05
734 1.41706e-05
734.125 1.4173e-05
734.25 1.42118e-05
734.375 1.42505e-05
734.5 1.42529e-05
734.625 1.42554e-05
734.75 1.41589e-05
734.875 1.40625e-05
735 1.40649e-05
735.125 1.40673e-05
735.25 1.39644e-05
735.375 1.38614e-05
735.5 1.38638e-05
735.625 1.38661e-05
735.75 1.38778e-05
735.875 1.38895e-05
736 1.38919e-05
736.125 1.38942e-05
736.25 1.3935e-05
736.375 1.39758e-05
736.5 1.39782e-05
736.625 1.39806e-05
736.75 1.40765e-05
736.875 1.41724e-05
737 1.41748e-05
737.125 1.41772e-05
737.25 1.42664e-05
737.375 1.43556e-05
737.5 1.4358e-05
737.625 1.43604e-05
737.75 1.44448e-05
737.875 1.45291e-05
738 1.45316e-05
738.125 1.4534e-05
738.25 1.44807e-05
738.375 1.44273e-05
738.5 1.44298e-05
738.625 1.44322e-05
738.75 1.43558e-05
738.875 1.42794e-05
739 1.42818e-05
739.125 1.42842e-05
739.25 1.4377e-05
739.375 1.44699e-05
739.5 1.44724e-05
739.625 1.44748e-05
739.75 1.45394e-05
739.875 1.46039e-05
740 1.46064e-05
740.125 1.46089e-05
740.25 1.45991e-05
740.375 1.45893e-05
740.5 1.45917e-05
740.625 1.45942e-05
740.75 1.45501e-05
740.875 1.45061e-05
741 1.45085e-05
741.125 1.45109e-05
741.25 1.44329e-05
741.375 1.43548e-05
741.5 1.43573e-05
741.625 1.43597e-05
741.75 1.43276e-05
741.875 1.42954e-05
742 1.42978e-05
742.125 1.43002e-05
742.25 1.42854e-05
742.375 1.42705e-05
742.5 1.42729e-05
742.625 1.42753e-05
742.75 1.43548e-05
742.875 1.44344e-05
743 1.44369e-05
743.125 1.44393e-05
743.25 1.4518e-05
743.375 1.45966e-05
743.5 1.45991e-05
743.625 1.46015e-05
743.75 1.46519e-05
743.875 1.47022e-05
744 1.47047e-05
744.125 1.47071e-05
744.25 1.4729e-05
744.375 1.47509e-05
744.5 1.47534e-05
744.625 1.47559e-05
744.75 1.47331e-05
744.875 1.47103e-05
745 1.47128e-05
745.125 1.47153e-05
745.25 1.47744e-05
745.375 1.48335e-05
745.5 1.4836e-05
745.625 1.48385e-05
745.75 1.4951e-05
745.875 1.50635e-05
746 1.5066e-05
746.125 1.50685e-05
746.25 1.49879e-05
746.375 1.49073e-05
746.5 1.49098e-05
746.625 1.49123e-05
746.75 1.47946e-05
746.875 1.46769e-05
747 1.46794e-05
747.125 1.46818e-05
747.25 1.47255e-05
747.375 1.47693e-05
747.5 1.47718e-05
747.625 1.47742e-05
747.75 1.48143e-05
747.875 1.48543e-05
748 1.48568e-05
748.125 1.48593e-05
748.25 1.48877e-05
748.375 1.49161e-05
748.5 1.49186e-05
748.625 1.49211e-05
748.75 1.49034e-05
748.875 1.48857e-05
749 1.48881e-05
749.125 1.48906e-05
749.25 1.48164e-05
749.375 1.47421e-05
749.5 1.47446e-05
749.625 1.4747e-05
749.75 1.47163e-05
749.875 1.46856e-05
750 1.46881e-05
750.125 1.46905e-05
750.25 1.46827e-05
750.375 1.46749e-05
750.5 1.46774e-05
750.625 1.46798e-05
750.75 1.46276e-05
750.875 1.45754e-05
751 1.45778e-05
751.125 1.45803e-05
751.25 1.45265e-05
751.375 1.44728e-05
751.5 1.44752e-05
751.625 1.44776e-05
751.75 1.45126e-05
751.875 1.45475e-05
752 1.455e-05
752.125 1.45524e-05
752.25 1.4571e-05
752.375 1.45895e-05
752.5 1.4592e-05
752.625 1.45944e-05
752.75 1.4566e-05
752.875 1.45376e-05
753 1.454e-05
753.125 1.45424e-05
753.25 1.45392e-05
753.375 1.4536e-05
753.5 1.45384e-05
753.625 1.45408e-05
753.75 1.45675e-05
753.875 1.45942e-05
754 1.45966e-05
754.125 1.4599e-05
754.25 1.46023e-05
754.375 1.46056e-05
754.5 1.4608e-05
754.625 1.46104e-05
754.75 1.46012e-05
754.875 1.45919e-05
755 1.45943e-05
755.125 1.45967e-05
755.25 1.45822e-05
755.375 1.45676e-05
755.5 1.457e-05
755.625 1.45724e-05
755.75 1.45569e-05
755.875 1.45415e-05
756 1.45439e-05
756.125 1.45463e-05
756.25 1.4533e-05
756.375 1.45198e-05
756.5 1.45222e-05
756.625 1.45246e-05
756.75 1.45109e-05
756.875 1.44973e-05
757 1.44997e-05
757.125 1.45021e-05
757.25 1.44872e-05
757.375 1.44724e-05
757.5 1.44748e-05
757.625 1.44772e-05
757.75 1.44718e-05
757.875 1.44664e-05
758 1.44688e-05
758.125 1.44712e-05
758.25 1.44795e-05
758.375 1.44878e-05
758.5 1.44902e-05
758.625 1.44926e-05
758.75 1.45046e-05
758.875 1.45167e-05
759 1.45191e-05
759.125 1.45215e-05
759.25 1.45361e-05
759.375 1.45507e-05
759.5 1.45531e-05
759.625 1.45555e-05
759.75 1.44518e-05
759.875 1.4348e-05
760 1.43504e-05
760.125 1.43527e-05
760.25 1.42145e-05
760.375 1.40762e-05
760.5 1.40785e-05
760.625 1.40808e-05
760.75 1.42341e-05
760.875 1.43875e-05
761 1.43898e-05
761.125 1.43922e-05
761.25 1.4519e-05
761.375 1.46459e-05
761.5 1.46483e-05
761.625 1.46507e-05
761.75 1.45112e-05
761.875 1.43717e-05
762 1.4374e-05
762.125 1.43764e-05
762.25 1.43222e-05
762.375 1.42679e-05
762.5 1.42703e-05
762.625 1.42726e-05
762.75 1.44105e-05
762.875 1.45484e-05
763 1.45507e-05
763.125 1.45531e-05
763.25 1.46093e-05
763.375 1.46655e-05
763.5 1.46679e-05
763.625 1.46703e-05
763.75 1.46383e-05
763.875 1.46063e-05
764 1.46086e-05
764.125 1.4611e-05
764.25 1.45488e-05
764.375 1.44866e-05
764.5 1.4489e-05
764.625 1.44914e-05
764.75 1.4413e-05
764.875 1.43346e-05
765 1.4337e-05
765.125 1.43393e-05
765.25 1.42528e-05
765.375 1.41664e-05
765.5 1.41687e-05
765.625 1.4171e-05
765.75 1.40828e-05
765.875 1.39945e-05
766 1.39968e-05
766.125 1.39991e-05
766.25 1.39397e-05
766.375 1.38804e-05
766.5 1.38826e-05
766.625 1.38849e-05
766.75 1.38416e-05
766.875 1.37983e-05
767 1.38006e-05
767.125 1.38028e-05
767.25 1.38475e-05
767.375 1.38921e-05
767.5 1.38944e-05
767.625 1.38967e-05
767.75 1.39582e-05
767.875 1.40198e-05
768 1.40221e-05
768.125 1.40244e-05
768.25 1.41231e-05
768.375 1.42219e-05
768.5 1.42242e-05
768.625 1.42265e-05
768.75 1.42048e-05
768.875 1.41831e-05
769 1.41854e-05
769.125 1.41877e-05
769.25 1.4032e-05
769.375 1.38762e-05
769.5 1.38785e-05
769.625 1.38808e-05
769.75 1.38963e-05
769.875 1.39119e-05
770 1.39141e-05
770.125 1.39164e-05
770.25 1.4032e-05
770.375 1.41476e-05
770.5 1.41499e-05
770.625 1.41522e-05
770.75 1.42043e-05
770.875 1.42564e-05
771 1.42587e-05
771.125 1.4261e-05
771.25 1.42959e-05
771.375 1.43308e-05
771.5 1.43331e-05
771.625 1.43354e-05
771.75 1.4283e-05
771.875 1.42305e-05
772 1.42328e-05
772.125 1.42351e-05
772.25 1.4194e-05
772.375 1.41528e-05
772.5 1.41551e-05
772.625 1.41574e-05
772.75 1.42851e-05
772.875 1.44127e-05
773 1.44151e-05
773.125 1.44174e-05
773.25 1.4512e-05
773.375 1.46067e-05
773.5 1.4609e-05
773.625 1.46114e-05
773.75 1.46016e-05
773.875 1.45918e-05
774 1.45942e-05
774.125 1.45965e-05
774.25 1.45497e-05
774.375 1.45028e-05
774.5 1.45051e-05
774.625 1.45075e-05
774.75 1.44019e-05
774.875 1.42963e-05
775 1.42986e-05
775.125 1.43009e-05
775.25 1.43081e-05
775.375 1.43152e-05
775.5 1.43175e-05
775.625 1.43198e-05
775.75 1.44269e-05
775.875 1.45339e-05
776 1.45362e-05
776.125 1.45386e-05
776.25 1.45623e-05
776.375 1.4586e-05
776.5 1.45884e-05
776.625 1.45907e-05
776.75 1.4574e-05
776.875 1.45573e-05
777 1.45596e-05
777.125 1.4562e-05
777.25 1.46321e-05
777.375 1.47023e-05
777.5 1.47047e-05
777.625 1.4707e-05
777.75 1.47971e-05
777.875 1.48873e-05
778 1.48897e-05
778.125 1.48921e-05
778.25 1.4766e-05
778.375 1.464e-05
778.5 1.46423e-05
778.625 1.46447e-05
778.75 1.45272e-05
778.875 1.44096e-05
779 1.44119e-05
779.125 1.44142e-05
779.25 1.4504e-05
779.375 1.45938e-05
779.5 1.45961e-05
779.625 1.45985e-05
779.75 1.4679e-05
779.875 1.47595e-05
780 1.47618e-05
780.125 1.47642e-05
780.25 1.48117e-05
780.375 1.48591e-05
780.5 1.48615e-05
780.625 1.48639e-05
780.75 1.48993e-05
780.875 1.49346e-05
781 1.4937e-05
781.125 1.49394e-05
781.25 1.49524e-05
781.375 1.49653e-05
781.5 1.49677e-05
781.625 1.49701e-05
781.75 1.49753e-05
781.875 1.49805e-05
782 1.49829e-05
782.125 1.49852e-05
782.25 1.4982e-05
782.375 1.49787e-05
782.5 1.49811e-05
782.625 1.49835e-05
782.75 1.49364e-05
782.875 1.48892e-05
783 1.48916e-05
783.125 1.48939e-05
783.25 1.48183e-05
783.375 1.47426e-05
783.5 1.4745e-05
783.625 1.47473e-05
783.75 1.46819e-05
783.875 1.46165e-05
784 1.46189e-05
784.125 1.46212e-05
784.25 1.45596e-05
784.375 1.44979e-05
784.5 1.45002e-05
784.625 1.45026e-05
784.75 1.45388e-05
784.875 1.4575e-05
785 1.45773e-05
785.125 1.45796e-05
785.25 1.46327e-05
785.375 1.46858e-05
785.5 1.46882e-05
785.625 1.46905e-05
785.75 1.47309e-05
785.875 1.47714e-05
786 1.47737e-05
786.125 1.47761e-05
786.25 1.48146e-05
786.375 1.48531e-05
786.5 1.48555e-05
786.625 1.48578e-05
786.75 1.48808e-05
786.875 1.49038e-05
787 1.49061e-05
787.125 1.49085e-05
787.25 1.49182e-05
787.375 1.49278e-05
787.5 1.49302e-05
787.625 1.49325e-05
787.75 1.48906e-05
787.875 1.48487e-05
788 1.4851e-05
788.125 1.48534e-05
788.25 1.47908e-05
788.375 1.47282e-05
788.5 1.47305e-05
788.625 1.47329e-05
788.75 1.46261e-05
788.875 1.45193e-05
789 1.45216e-05
789.125 1.45239e-05
789.25 1.44931e-05
789.375 1.44622e-05
789.5 1.44645e-05
789.625 1.44668e-05
789.75 1.45368e-05
789.875 1.46068e-05
790 1.46091e-05
790.125 1.46114e-05
790.25 1.46236e-05
790.375 1.46358e-05
790.5 1.46382e-05
790.625 1.46405e-05
790.75 1.46032e-05
790.875 1.45659e-05
791 1.45682e-05
791.125 1.45705e-05
791.25 1.44936e-05
791.375 1.44167e-05
791.5 1.4419e-05
791.625 1.44213e-05
791.75 1.43226e-05
791.875 1.42239e-05
792 1.42261e-05
792.125 1.42284e-05
792.25 1.42771e-05
792.375 1.43259e-05
792.5 1.43282e-05
792.625 1.43305e-05
792.75 1.44288e-05
792.875 1.45271e-05
793 1.45294e-05
793.125 1.45317e-05
793.25 1.44285e-05
793.375 1.43253e-05
793.5 1.43276e-05
793.625 1.43298e-05
793.75 1.41913e-05
793.875 1.40527e-05
794 1.40549e-05
794.125 1.40571e-05
794.25 1.41539e-05
794.375 1.42507e-05
794.5 1.4253e-05
794.625 1.42552e-05
794.75 1.43586e-05
794.875 1.44619e-05
795 1.44642e-05
795.125 1.44665e-05
795.25 1.44545e-05
795.375 1.44425e-05
795.5 1.44447e-05
795.625 1.4447e-05
795.75 1.4456e-05
795.875 1.44649e-05
796 1.44672e-05
796.125 1.44695e-05
796.25 1.46062e-05
796.375 1.47429e-05
796.5 1.47452e-05
796.625 1.47475e-05
796.75 1.48412e-05
796.875 1.49349e-05
797 1.49372e-05
797.125 1.49396e-05
797.25 1.48925e-05
797.375 1.48454e-05
797.5 1.48477e-05
797.625 1.485e-05
797.75 1.48228e-05
797.875 1.47955e-05
798 1.47978e-05
798.125 1.48001e-05
798.25 1.48141e-05
798.375 1.48281e-05
798.5 1.48304e-05
798.625 1.48328e-05
798.75 1.48591e-05
798.875 1.48854e-05
799 1.48877e-05
799.125 1.489e-05
799.25 1.49339e-05
799.375 1.49778e-05
799.5 1.49801e-05
799.625 1.49825e-05
799.75 1.50502e-05
799.875 1.5118e-05
800 1.51204e-05
800.125 1.51228e-05
800.25 1.52146e-05
800.375 1.53065e-05
800.5 1.53089e-05
800.625 1.53113e-05
800.75 1.54184e-05
800.875 1.55255e-05
801 1.55279e-05
801.125 1.55304e-05
801.25 1.56484e-05
801.375 1.57664e-05
801.5 1.57688e-05
801.625 1.57713e-05
801.75 1.57846e-05
801.875 1.57978e-05
802 1.58003e-05
802.125 1.58028e-05
802.25 1.57629e-05
802.375 1.57229e-05
802.5 1.57254e-05
802.625 1.57278e-05
802.75 1.5623e-05
802.875 1.55182e-05
803 1.55206e-05
803.125 1.5523e-05
803.25 1.53957e-05
803.375 1.52683e-05
803.5 1.52707e-05
803.625 1.52731e-05
803.75 1.53128e-05
803.875 1.53525e-05
804 1.53549e-05
804.125 1.53572e-05
804.25 1.5434e-05
804.375 1.55108e-05
804.5 1.55132e-05
804.625 1.55156e-05
804.75 1.54306e-05
804.875 1.53456e-05
805 1.5348e-05
805.125 1.53503e-05
805.25 1.52459e-05
805.375 1.51415e-05
805.5 1.51439e-05
805.625 1.51462e-05
805.75 1.51674e-05
805.875 1.51886e-05
806 1.5191e-05
806.125 1.51933e-05
806.25 1.52157e-05
806.375 1.5238e-05
806.5 1.52404e-05
806.625 1.52428e-05
806.75 1.51716e-05
806.875 1.51004e-05
807 1.51028e-05
807.125 1.51051e-05
807.25 1.50428e-05
807.375 1.49806e-05
807.5 1.49829e-05
807.625 1.49852e-05
807.75 1.50005e-05
807.875 1.50158e-05
808 1.50181e-05
808.125 1.50204e-05
808.25 1.50295e-05
808.375 1.50386e-05
808.5 1.50409e-05
808.625 1.50432e-05
808.75 1.50211e-05
808.875 1.4999e-05
809 1.50014e-05
809.125 1.50037e-05
809.25 1.49828e-05
809.375 1.4962e-05
809.5 1.49643e-05
809.625 1.49666e-05
809.75 1.49499e-05
809.875 1.49332e-05
810 1.49355e-05
810.125 1.49378e-05
810.25 1.49339e-05
810.375 1.49301e-05
810.5 1.49324e-05
810.625 1.49347e-05
810.75 1.49623e-05
810.875 1.49899e-05
811 1.49923e-05
811.125 1.49946e-05
811.25 1.50664e-05
811.375 1.51384e-05
811.5 1.51407e-05
811.625 1.5143e-05
811.75 1.52975e-05
811.875 1.5452e-05
812 1.54544e-05
812.125 1.54568e-05
812.25 1.55768e-05
812.375 1.56968e-05
812.5 1.56992e-05
812.625 1.57016e-05
812.75 1.57708e-05
812.875 1.584e-05
813 1.58424e-05
813.125 1.58448e-05
813.25 1.58772e-05
813.375 1.59095e-05
813.5 1.5912e-05
813.625 1.59144e-05
813.75 1.59031e-05
813.875 1.58918e-05
814 1.58943e-05
814.125 1.58967e-05
814.25 1.58521e-05
814.375 1.58074e-05
814.5 1.58098e-05
814.625 1.58123e-05
814.75 1.57355e-05
814.875 1.56587e-05
815 1.56611e-05
815.125 1.56635e-05
815.25 1.57384e-05
815.375 1.58133e-05
815.5 1.58157e-05
815.625 1.58181e-05
815.75 1.60132e-05
815.875 1.62082e-05
816 1.62107e-05
816.125 1.62132e-05
816.25 1.62818e-05
816.375 1.63505e-05
816.5 1.6353e-05
816.625 1.63555e-05
816.75 1.63412e-05
816.875 1.63268e-05
817 1.63293e-05
817.125 1.63318e-05
817.25 1.62696e-05
817.375 1.62074e-05
817.5 1.62099e-05
817.625 1.62123e-05
817.75 1.61241e-05
817.875 1.60359e-05
818 1.60383e-05
818.125 1.60408e-05
818.25 1.58903e-05
818.375 1.57397e-05
818.5 1.57421e-05
818.625 1.57445e-05
818.75 1.5566e-05
818.875 1.53874e-05
819 1.53898e-05
819.125 1.53921e-05
819.25 1.53485e-05
819.375 1.53048e-05
819.5 1.53072e-05
819.625 1.53095e-05
819.75 1.53161e-05
819.875 1.53226e-05
820 1.53249e-05
820.125 1.53273e-05
820.25 1.53237e-05
820.375 1.53201e-05
820.5 1.53225e-05
820.625 1.53248e-05
820.75 1.53182e-05
820.875 1.53115e-05
821 1.53139e-05
821.125 1.53162e-05
821.25 1.52533e-05
821.375 1.51904e-05
821.5 1.51927e-05
821.625 1.51951e-05
821.75 1.51183e-05
821.875 1.50414e-05
822 1.50437e-05
822.125 1.5046e-05
822.25 1.5161e-05
822.375 1.52761e-05
822.5 1.52784e-05
822.625 1.52807e-05
822.75 1.54342e-05
822.875 1.55877e-05
823 1.559e-05
823.125 1.55924e-05
823.25 1.56226e-05
823.375 1.56527e-05
823.5 1.56551e-05
823.625 1.56575e-05
823.75 1.5668e-05
823.875 1.56786e-05
824 1.5681e-05
824.125 1.56834e-05
824.25 1.57298e-05
824.375 1.57763e-05
824.5 1.57787e-05
824.625 1.57811e-05
824.75 1.58319e-05
824.875 1.58828e-05
825 1.58852e-05
825.125 1.58876e-05
825.25 1.58766e-05
825.375 1.58656e-05
825.5 1.5868e-05
825.625 1.58704e-05
825.75 1.58537e-05
825.875 1.5837e-05
826 1.58394e-05
826.125 1.58418e-05
826.25 1.58294e-05
826.375 1.5817e-05
826.5 1.58194e-05
826.625 1.58218e-05
826.75 1.58097e-05
826.875 1.57976e-05
827 1.58e-05
827.125 1.58024e-05
827.25 1.57367e-05
827.375 1.5671e-05
827.5 1.56734e-05
827.625 1.56757e-05
827.75 1.56078e-05
827.875 1.55398e-05
828 1.55421e-05
828.125 1.55445e-05
828.25 1.56248e-05
828.375 1.57051e-05
828.5 1.57075e-05
828.625 1.57099e-05
828.75 1.57936e-05
828.875 1.58773e-05
829 1.58797e-05
829.125 1.58821e-05
829.25 1.58185e-05
829.375 1.5755e-05
829.5 1.57574e-05
829.625 1.57597e-05
829.75 1.5695e-05
829.875 1.56302e-05
830 1.56325e-05
830.125 1.56349e-05
830.25 1.55385e-05
830.375 1.54422e-05
830.5 1.54445e-05
830.625 1.54468e-05
830.75 1.53549e-05
830.875 1.52629e-05
831 1.52652e-05
831.125 1.52675e-05
831.25 1.5415e-05
831.375 1.55627e-05
831.5 1.5565e-05
831.625 1.55673e-05
831.75 1.57063e-05
831.875 1.58453e-05
832 1.58476e-05
832.125 1.585e-05
832.25 1.56742e-05
832.375 1.54984e-05
832.5 1.55007e-05
832.625 1.55031e-05
832.75 1.53332e-05
832.875 1.51634e-05
833 1.51656e-05
833.125 1.51679e-05
833.25 1.51753e-05
833.375 1.51826e-05
833.5 1.51849e-05
833.625 1.51872e-05
833.75 1.51933e-05
833.875 1.51995e-05
834 1.52018e-05
834.125 1.52041e-05
834.25 1.51787e-05
834.375 1.51534e-05
834.5 1.51557e-05
834.625 1.51579e-05
834.75 1.51325e-05
834.875 1.51072e-05
835 1.51094e-05
835.125 1.51117e-05
835.25 1.50851e-05
835.375 1.50585e-05
835.5 1.50607e-05
835.625 1.5063e-05
835.75 1.50427e-05
835.875 1.50225e-05
836 1.50248e-05
836.125 1.5027e-05
836.25 1.51711e-05
836.375 1.53152e-05
836.5 1.53175e-05
836.625 1.53198e-05
836.75 1.54584e-05
836.875 1.5597e-05
837 1.55993e-05
837.125 1.56016e-05
837.25 1.55861e-05
837.375 1.55705e-05
837.5 1.55728e-05
837.625 1.55752e-05
837.75 1.55578e-05
837.875 1.55404e-05
838 1.55427e-05
838.125 1.5545e-05
838.25 1.54645e-05
838.375 1.53839e-05
838.5 1.53862e-05
838.625 1.53885e-05
838.75 1.53112e-05
838.875 1.52339e-05
839 1.52362e-05
839.125 1.52385e-05
839.25 1.53228e-05
839.375 1.54071e-05
839.5 1.54094e-05
839.625 1.54117e-05
839.75 1.54961e-05
839.875 1.55805e-05
840 1.55829e-05
840.125 1.55852e-05
840.25 1.56865e-05
840.375 1.57879e-05
840.5 1.57903e-05
840.625 1.57926e-05
840.75 1.58939e-05
840.875 1.59953e-05
841 1.59977e-05
841.125 1.60001e-05
841.25 1.58871e-05
841.375 1.57741e-05
841.5 1.57764e-05
841.625 1.57788e-05
841.75 1.56652e-05
841.875 1.55516e-05
842 1.55539e-05
842.125 1.55562e-05
842.25 1.54855e-05
842.375 1.54147e-05
842.5 1.5417e-05
842.625 1.54193e-05
842.75 1.53494e-05
842.875 1.52796e-05
843 1.52818e-05
843.125 1.52841e-05
843.25 1.52563e-05
843.375 1.52284e-05
843.5 1.52307e-05
843.625 1.5233e-05
843.75 1.52068e-05
843.875 1.51805e-05
844 1.51828e-05
844.125 1.5185e-05
844.25 1.52187e-05
844.375 1.52524e-05
844.5 1.52547e-05
844.625 1.5257e-05
844.75 1.52942e-05
844.875 1.53315e-05
845 1.53338e-05
845.125 1.53361e-05
845.25 1.53912e-05
845.375 1.54463e-05
845.5 1.54486e-05
845.625 1.54509e-05
845.75 1.55075e-05
845.875 1.55641e-05
846 1.55664e-05
846.125 1.55687e-05
846.25 1.54911e-05
846.375 1.54136e-05
846.5 1.54158e-05
846.625 1.54181e-05
846.75 1.53249e-05
846.875 1.52317e-05
847 1.52339e-05
847.125 1.52362e-05
847.25 1.52558e-05
847.375 1.52755e-05
847.5 1.52777e-05
847.625 1.528e-05
847.75 1.53169e-05
847.875 1.53538e-05
848 1.5356e-05
848.125 1.53583e-05
848.25 1.53186e-05
848.375 1.52789e-05
848.5 1.52811e-05
848.625 1.52834e-05
848.75 1.52289e-05
848.875 1.51743e-05
849 1.51765e-05
849.125 1.51788e-05
849.25 1.49569e-05
849.375 1.47349e-05
849.5 1.4737e-05
849.625 1.47392e-05
849.75 1.4477e-05
849.875 1.42147e-05
850 1.42167e-05
850.125 1.42188e-05
850.25 1.43773e-05
850.375 1.45357e-05
850.5 1.45379e-05
850.625 1.454e-05
850.75 1.48233e-05
850.875 1.51066e-05
851 1.51088e-05
851.125 1.5111e-05
851.25 1.51588e-05
851.375 1.52066e-05
851.5 1.52088e-05
851.625 1.5211e-05
851.75 1.51731e-05
851.875 1.51352e-05
852 1.51374e-05
852.125 1.51396e-05
852.25 1.51172e-05
852.375 1.50948e-05
852.5 1.5097e-05
852.625 1.50992e-05
852.75 1.50837e-05
852.875 1.50681e-05
853 1.50704e-05
853.125 1.50726e-05
853.25 1.46911e-05
853.375 1.43095e-05
853.5 1.43116e-05
853.625 1.43137e-05
853.75 1.37369e-05
853.875 1.316e-05
854 1.31619e-05
854.125 1.31638e-05
854.25 1.31073e-05
854.375 1.30508e-05
854.5 1.30527e-05
854.625 1.30547e-05
854.75 1.33338e-05
854.875 1.36129e-05
855 1.36149e-05
855.125 1.36169e-05
855.25 1.39924e-05
855.375 1.4368e-05
855.5 1.43701e-05
855.625 1.43722e-05
855.75 1.48235e-05
855.875 1.52748e-05
856 1.52771e-05
856.125 1.52793e-05
856.25 1.5488e-05
856.375 1.56968e-05
856.5 1.56991e-05
856.625 1.57014e-05
856.75 1.56781e-05
856.875 1.56547e-05
857 1.5657e-05
857.125 1.56593e-05
857.25 1.56844e-05
857.375 1.57095e-05
857.5 1.57118e-05
857.625 1.57141e-05
857.75 1.57963e-05
857.875 1.58785e-05
858 1.58808e-05
858.125 1.58831e-05
858.25 1.59936e-05
858.375 1.61042e-05
858.5 1.61065e-05
858.625 1.61089e-05
858.75 1.62611e-05
858.875 1.64133e-05
859 1.64157e-05
859.125 1.64181e-05
859.25 1.65062e-05
859.375 1.65942e-05
859.5 1.65966e-05
859.625 1.6599e-05
859.75 1.65668e-05
859.875 1.65345e-05
860 1.65369e-05
860.125 1.65393e-05
860.25 1.64932e-05
860.375 1.64472e-05
860.5 1.64496e-05
860.625 1.6452e-05
860.75 1.6372e-05
860.875 1.62921e-05
861 1.62944e-05
861.125 1.62968e-05
861.25 1.6237e-05
861.375 1.61772e-05
861.5 1.61795e-05
861.625 1.61818e-05
861.75 1.61904e-05
861.875 1.6199e-05
862 1.62014e-05
862.125 1.62037e-05
862.25 1.62211e-05
862.375 1.62385e-05
862.5 1.62408e-05
862.625 1.62432e-05
862.75 1.63057e-05
862.875 1.63683e-05
863 1.63707e-05
863.125 1.6373e-05
863.25 1.64275e-05
863.375 1.6482e-05
863.5 1.64843e-05
863.625 1.64867e-05
863.75 1.64659e-05
863.875 1.64451e-05
864 1.64475e-05
864.125 1.64499e-05
864.25 1.64274e-05
864.375 1.64049e-05
864.5 1.64073e-05
864.625 1.64097e-05
864.75 1.63261e-05
864.875 1.62425e-05
865 1.62448e-05
865.125 1.62472e-05
865.25 1.61636e-05
865.375 1.608e-05
865.5 1.60824e-05
865.625 1.60847e-05
865.75 1.56192e-05
865.875 1.51535e-05
866 1.51557e-05
866.125 1.51579e-05
866.25 1.46748e-05
866.375 1.41915e-05
866.5 1.41935e-05
866.625 1.41955e-05
866.75 1.44407e-05
866.875 1.46859e-05
867 1.46881e-05
867.125 1.46902e-05
867.25 1.5033e-05
867.375 1.5376e-05
867.5 1.53782e-05
867.625 1.53804e-05
867.75 1.54749e-05
867.875 1.55694e-05
868 1.55717e-05
868.125 1.55739e-05
868.25 1.56083e-05
868.375 1.56428e-05
868.5 1.5645e-05
868.625 1.56473e-05
868.75 1.5714e-05
868.875 1.57808e-05
869 1.5783e-05
869.125 1.57853e-05
869.25 1.58642e-05
869.375 1.59432e-05
869.5 1.59455e-05
869.625 1.59478e-05
869.75 1.60693e-05
869.875 1.61909e-05
870 1.61932e-05
870.125 1.61956e-05
870.25 1.63406e-05
870.375 1.64857e-05
870.5 1.64881e-05
870.625 1.64905e-05
870.75 1.65678e-05
870.875 1.66452e-05
871 1.66475e-05
871.125 1.66499e-05
871.25 1.66742e-05
871.375 1.66984e-05
871.5 1.67008e-05
871.625 1.67032e-05
871.75 1.67092e-05
871.875 1.67153e-05
872 1.67177e-05
872.125 1.67201e-05
872.25 1.67059e-05
872.375 1.66918e-05
872.5 1.66942e-05
872.625 1.66966e-05
872.75 1.67164e-05
872.875 1.67362e-05
873 1.67386e-05
873.125 1.6741e-05
873.25 1.68153e-05
873.375 1.68897e-05
873.5 1.68921e-05
873.625 1.68946e-05
873.75 1.6874e-05
873.875 1.68534e-05
874 1.68558e-05
874.125 1.68583e-05
874.25 1.66075e-05
874.375 1.63568e-05
874.5 1.63591e-05
874.625 1.63614e-05
874.75 1.61899e-05
874.875 1.60183e-05
875 1.60206e-05
875.125 1.60229e-05
875.25 1.61714e-05
875.375 1.63199e-05
875.5 1.63222e-05
875.625 1.63246e-05
875.75 1.64597e-05
875.875 1.65949e-05
876 1.65972e-05
876.125 1.65996e-05
876.25 1.66176e-05
876.375 1.66355e-05
876.5 1.66379e-05
876.625 1.66403e-05
876.75 1.66583e-05
876.875 1.66763e-05
877 1.66787e-05
877.125 1.66811e-05
877.25 1.67364e-05
877.375 1.67917e-05
877.5 1.67941e-05
877.625 1.67965e-05
877.75 1.68518e-05
877.875 1.6907e-05
878 1.69095e-05
878.125 1.69119e-05
878.25 1.68674e-05
878.375 1.6823e-05
878.5 1.68254e-05
878.625 1.68278e-05
878.75 1.67724e-05
878.875 1.6717e-05
879 1.67194e-05
879.125 1.67217e-05
879.25 1.71329e-05
879.375 1.75442e-05
879.5 1.75467e-05
879.625 1.75492e-05
879.75 1.80791e-05
879.875 1.86092e-05
880 1.86119e-05
880.125 1.86145e-05
880.25 1.83558e-05
880.375 1.80969e-05
880.5 1.80995e-05
880.625 1.8102e-05
880.75 1.74898e-05
880.875 1.68773e-05
881 1.68797e-05
881.125 1.68821e-05
881.25 1.6689e-05
881.375 1.64959e-05
881.5 1.64982e-05
881.625 1.65006e-05
881.75 1.66092e-05
881.875 1.67179e-05
882 1.67203e-05
882.125 1.67227e-05
882.25 1.67998e-05
882.375 1.6877e-05
882.5 1.68794e-05
882.625 1.68818e-05
882.75 1.69233e-05
882.875 1.69649e-05
883 1.69673e-05
883.125 1.69697e-05
883.25 1.69912e-05
883.375 1.70127e-05
883.5 1.70151e-05
883.625 1.70175e-05
883.75 1.70027e-05
883.875 1.69879e-05
884 1.69903e-05
884.125 1.69927e-05
884.25 1.70143e-05
884.375 1.70359e-05
884.5 1.70383e-05
884.625 1.70407e-05
884.75 1.71784e-05
884.875 1.73162e-05
885 1.73186e-05
885.125 1.7321e-05
885.25 1.74247e-05
885.375 1.75283e-05
885.5 1.75308e-05
885.625 1.75333e-05
885.75 1.73861e-05
885.875 1.7239e-05
886 1.72414e-05
886.125 1.72438e-05
886.25 1.70967e-05
886.375 1.69496e-05
886.5 1.6952e-05
886.625 1.69544e-05
886.75 1.68068e-05
886.875 1.66592e-05
887 1.66615e-05
887.125 1.66639e-05
887.25 1.65163e-05
887.375 1.63687e-05
887.5 1.6371e-05
887.625 1.63734e-05
887.75 1.6441e-05
887.875 1.65086e-05
888 1.6511e-05
888.125 1.65133e-05
888.25 1.66123e-05
888.375 1.67112e-05
888.5 1.67136e-05
888.625 1.67159e-05
888.75 1.67948e-05
888.875 1.68738e-05
889 1.68761e-05
889.125 1.68785e-05
889.25 1.69506e-05
889.375 1.70227e-05
889.5 1.70251e-05
889.625 1.70275e-05
889.75 1.70014e-05
889.875 1.69754e-05
890 1.69777e-05
890.125 1.69801e-05
890.25 1.68932e-05
890.375 1.68062e-05
890.5 1.68086e-05
890.625 1.6811e-05
890.75 1.67478e-05
890.875 1.66847e-05
891 1.6687e-05
891.125 1.66894e-05
891.25 1.66516e-05
891.375 1.66138e-05
891.5 1.66161e-05
891.625 1.66184e-05
891.75 1.66363e-05
891.875 1.66541e-05
892 1.66565e-05
892.125 1.66588e-05
892.25 1.67799e-05
892.375 1.6901e-05
892.5 1.69034e-05
892.625 1.69058e-05
892.75 1.70237e-05
892.875 1.71417e-05
893 1.71441e-05
893.125 1.71465e-05
893.25 1.7253e-05
893.375 1.73595e-05
893.5 1.73619e-05
893.625 1.73644e-05
893.75 1.74453e-05
893.875 1.75263e-05
894 1.75288e-05
894.125 1.75312e-05
894.25 1.72918e-05
894.375 1.70522e-05
894.5 1.70546e-05
894.625 1.7057e-05
894.75 1.68175e-05
894.875 1.65781e-05
895 1.65804e-05
895.125 1.65827e-05
895.25 1.67265e-05
895.375 1.68704e-05
895.5 1.68727e-05
895.625 1.68751e-05
895.75 1.7047e-05
895.875 1.72189e-05
896 1.72213e-05
896.125 1.72237e-05
896.25 1.71887e-05
896.375 1.71537e-05
896.5 1.71561e-05
896.625 1.71585e-05
896.75 1.70671e-05
896.875 1.69758e-05
897 1.69782e-05
897.125 1.69805e-05
897.25 1.70068e-05
897.375 1.7033e-05
897.5 1.70354e-05
897.625 1.70377e-05
897.75 1.71304e-05
897.875 1.72231e-05
898 1.72255e-05
898.125 1.72279e-05
898.25 1.7311e-05
898.375 1.7394e-05
898.5 1.73964e-05
898.625 1.73989e-05
898.75 1.74719e-05
898.875 1.75449e-05
899 1.75473e-05
899.125 1.75497e-05
899.25 1.75836e-05
899.375 1.76175e-05
899.5 1.762e-05
899.625 1.76224e-05
899.75 1.75794e-05
899.875 1.75364e-05
900 1.75388e-05
900.125 1.75413e-05
900.25 1.74794e-05
900.375 1.74176e-05
900.5 1.742e-05
900.625 1.74224e-05
900.75 1.72747e-05
900.875 1.71269e-05
901 1.71293e-05
901.125 1.71316e-05
901.25 1.69863e-05
901.375 1.68409e-05
901.5 1.68432e-05
901.625 1.68456e-05
901.75 1.68019e-05
901.875 1.67582e-05
902 1.67605e-05
902.125 1.67628e-05
902.25 1.67191e-05
902.375 1.66754e-05
902.5 1.66778e-05
902.625 1.66801e-05
902.75 1.68085e-05
902.875 1.6937e-05
903 1.69394e-05
903.125 1.69417e-05
903.25 1.70976e-05
903.375 1.72534e-05
903.5 1.72558e-05
903.625 1.72582e-05
903.75 1.73206e-05
903.875 1.7383e-05
904 1.73854e-05
904.125 1.73878e-05
904.25 1.74101e-05
904.375 1.74324e-05
904.5 1.74348e-05
904.625 1.74372e-05
904.75 1.74841e-05
904.875 1.75311e-05
905 1.75335e-05
905.125 1.7536e-05
905.25 1.76045e-05
905.375 1.7673e-05
905.5 1.76755e-05
905.625 1.76779e-05
905.75 1.77093e-05
905.875 1.77407e-05
906 1.77431e-05
906.125 1.77456e-05
906.25 1.77126e-05
906.375 1.76796e-05
906.5 1.7682e-05
906.625 1.76844e-05
906.75 1.76582e-05
906.875 1.76321e-05
907 1.76345e-05
907.125 1.76369e-05
907.25 1.76388e-05
907.375 1.76407e-05
907.5 1.76432e-05
907.625 1.76456e-05
907.75 1.76416e-05
907.875 1.76376e-05
908 1.76401e-05
908.125 1.76425e-05
908.25 1.73831e-05
908.375 1.71236e-05
908.5 1.71259e-05
908.625 1.71283e-05
908.75 1.68689e-05
908.875 1.66095e-05
909 1.66118e-05
909.125 1.66141e-05
909.25 1.67098e-05
909.375 1.68056e-05
909.5 1.68079e-05
909.625 1.68102e-05
909.75 1.69706e-05
909.875 1.71311e-05
910 1.71334e-05
910.125 1.71358e-05
910.25 1.72315e-05
910.375 1.73272e-05
910.5 1.73295e-05
910.625 1.73319e-05
910.75 1.73954e-05
910.875 1.74588e-05
911 1.74612e-05
911.125 1.74636e-05
911.25 1.74932e-05
911.375 1.75228e-05
911.5 1.75252e-05
911.625 1.75276e-05
911.75 1.75214e-05
911.875 1.75153e-05
912 1.75177e-05
912.125 1.75201e-05
912.25 1.75087e-05
912.375 1.74972e-05
912.5 1.74996e-05
912.625 1.7502e-05
912.75 1.74783e-05
912.875 1.74546e-05
913 1.7457e-05
913.125 1.74594e-05
913.25 1.7445e-05
913.375 1.74306e-05
913.5 1.7433e-05
913.625 1.74354e-05
913.75 1.74912e-05
913.875 1.75471e-05
914 1.75495e-05
914.125 1.75519e-05
914.25 1.76078e-05
914.375 1.76636e-05
914.5 1.7666e-05
914.625 1.76685e-05
914.75 1.76191e-05
914.875 1.75698e-05
915 1.75722e-05
915.125 1.75746e-05
915.25 1.75171e-05
915.375 1.74596e-05
915.5 1.7462e-05
915.625 1.74644e-05
915.75 1.75361e-05
915.875 1.76079e-05
916 1.76103e-05
916.125 1.76127e-05
916.25 1.77307e-05
916.375 1.78487e-05
916.5 1.78512e-05
916.625 1.78536e-05
916.75 1.78491e-05
916.875 1.78445e-05
917 1.7847e-05
917.125 1.78494e-05
917.25 1.77415e-05
917.375 1.76335e-05
917.5 1.76359e-05
917.625 1.76383e-05
917.75 1.75787e-05
917.875 1.7519e-05
918 1.75214e-05
918.125 1.75238e-05
918.25 1.75554e-05
918.375 1.75871e-05
918.5 1.75895e-05
918.625 1.75919e-05
918.75 1.76048e-05
918.875 1.76177e-05
919 1.76201e-05
919.125 1.76225e-05
919.25 1.75249e-05
919.375 1.74273e-05
919.5 1.74296e-05
919.625 1.7432e-05
919.75 1.73345e-05
919.875 1.72369e-05
920 1.72392e-05
920.125 1.72416e-05
920.25 1.715e-05
920.375 1.70585e-05
920.5 1.70608e-05
920.625 1.70631e-05
920.75 1.69719e-05
920.875 1.68808e-05
921 1.6883e-05
921.125 1.68853e-05
921.25 1.67694e-05
921.375 1.66535e-05
921.5 1.66557e-05
921.625 1.6658e-05
921.75 1.65334e-05
921.875 1.64087e-05
922 1.64109e-05
922.125 1.64132e-05
922.25 1.63038e-05
922.375 1.61944e-05
922.5 1.61966e-05
922.625 1.61987e-05
922.75 1.61028e-05
922.875 1.60067e-05
923 1.60089e-05
923.125 1.60111e-05
923.25 1.59959e-05
923.375 1.59807e-05
923.5 1.59828e-05
923.625 1.5985e-05
923.75 1.61411e-05
923.875 1.62972e-05
924 1.62994e-05
924.125 1.63016e-05
924.25 1.63833e-05
924.375 1.6465e-05
924.5 1.64673e-05
924.625 1.64695e-05
924.75 1.59374e-05
924.875 1.54052e-05
925 1.54073e-05
925.125 1.54094e-05
925.25 1.48775e-05
925.375 1.43455e-05
925.5 1.43474e-05
925.625 1.43493e-05
925.75 1.48524e-05
925.875 1.53556e-05
926 1.53577e-05
926.125 1.53598e-05
926.25 1.59868e-05
926.375 1.66139e-05
926.5 1.66162e-05
926.625 1.66184e-05
926.75 1.69197e-05
926.875 1.72211e-05
927 1.72234e-05
927.125 1.72258e-05
927.25 1.73704e-05
927.375 1.75151e-05
927.5 1.75174e-05
927.625 1.75198e-05
927.75 1.74343e-05
927.875 1.73487e-05
928 1.7351e-05
928.125 1.73534e-05
928.25 1.6992e-05
928.375 1.66306e-05
928.5 1.66329e-05
928.625 1.66351e-05
928.75 1.63874e-05
928.875 1.61397e-05
929 1.61418e-05
929.125 1.6144e-05
929.25 1.62746e-05
929.375 1.64053e-05
929.5 1.64075e-05
929.625 1.64097e-05
929.75 1.654e-05
929.875 1.66704e-05