# lam(nm) Flux (phot/s/cm2/Ang)
465 5.79932e-06
465.125 5.80088e-06
465.25 5.87793e-06
465.375 5.95503e-06
465.5 5.95663e-06
465.625 5.95823e-06
465.75 6.09274e-06
465.875 6.22733e-06
466 6.229e-06
466.125 6.23067e-06
466.25 6.1151e-06
466.375 5.99947e-06
466.5 6.00108e-06
466.625 6.00268e-06
466.75 5.96313e-06
466.875 5.92355e-06
467 5.92514e-06
467.125 5.92672e-06
467.25 5.89181e-06
467.375 5.85687e-06
467.5 5.85844e-06
467.625 5.86e-06
467.75 5.82061e-06
467.875 5.78119e-06
468 5.78273e-06
468.125 5.78428e-06
468.25 5.75752e-06
468.375 5.73074e-06
468.5 5.73227e-06
468.625 5.7338e-06
468.75 5.75075e-06
468.875 5.7677e-06
469 5.76924e-06
469.125 5.77077e-06
469.25 5.82085e-06
469.375 5.87094e-06
469.5 5.87251e-06
469.625 5.87407e-06
469.75 5.84959e-06
469.875 5.82509e-06
470 5.82663e-06
470.125 5.82818e-06
470.25 5.81613e-06
470.375 5.80407e-06
470.5 5.80561e-06
470.625 5.80715e-06
470.75 5.79847e-06
470.875 5.78977e-06
471 5.79131e-06
471.125 5.79285e-06
471.25 5.87131e-06
471.375 5.94981e-06
471.5 5.95139e-06
471.625 5.95297e-06
471.75 6.04978e-06
471.875 6.14664e-06
472 6.14827e-06
472.125 6.1499e-06
472.25 6.15281e-06
472.375 6.15573e-06
472.5 6.15735e-06
472.625 6.15898e-06
472.75 6.12564e-06
472.875 6.09228e-06
473 6.09389e-06
473.125 6.0955e-06
473.25 6.10435e-06
473.375 6.1132e-06
473.5 6.11481e-06
473.625 6.11643e-06
473.75 6.12513e-06
473.875 6.13383e-06
474 6.13545e-06
474.125 6.13707e-06
474.25 6.08934e-06
474.375 6.04158e-06
474.5 6.04317e-06
474.625 6.04476e-06
474.75 6.17833e-06
474.875 6.31197e-06
475 6.31363e-06
475.125 6.31529e-06
475.25 6.2034e-06
475.375 6.09145e-06
475.5 6.09305e-06
475.625 6.09466e-06
475.75 6.01796e-06
475.875 5.94122e-06
476 5.94278e-06
476.125 5.94434e-06
476.25 5.92641e-06
476.375 5.90848e-06
476.5 5.91003e-06
476.625 5.91158e-06
476.75 5.96212e-06
476.875 6.0127e-06
477 6.01427e-06
477.125 6.01585e-06
477.25 6.08343e-06
477.375 6.15105e-06
477.5 6.15266e-06
477.625 6.15427e-06
477.75 6.16643e-06
477.875 6.1786e-06
478 6.18022e-06
478.125 6.18183e-06
478.25 6.17369e-06
478.375 6.16555e-06
478.5 6.16716e-06
478.625 6.16877e-06
478.75 6.2134e-06
478.875 6.25805e-06
479 6.25968e-06
479.125 6.26131e-06
479.25 6.29067e-06
479.375 6.32004e-06
479.5 6.32169e-06
479.625 6.32334e-06
479.75 6.35532e-06
479.875 6.38731e-06
480 6.38898e-06
480.125 6.39064e-06
480.25 6.39701e-06
480.375 6.40339e-06
480.5 6.40506e-06
480.625 6.40672e-06
480.75 6.40827e-06
480.875 6.40981e-06
481 6.41148e-06
481.125 6.41314e-06
481.25 6.43367e-06
481.375 6.45421e-06
481.5 6.45589e-06
481.625 6.45756e-06
481.75 6.47503e-06
481.875 6.4925e-06
482 6.49419e-06
482.125 6.49587e-06
482.25 6.42983e-06
482.375 6.36376e-06
482.5 6.36541e-06
482.625 6.36706e-06
482.75 6.30871e-06
482.875 6.25033e-06
483 6.25195e-06
483.125 6.25357e-06
483.25 6.24143e-06
483.375 6.22928e-06
483.5 6.23089e-06
483.625 6.2325e-06
483.75 6.25823e-06
483.875 6.28398e-06
484 6.2856e-06
484.125 6.28722e-06
484.25 6.2999e-06
484.375 6.31258e-06
484.5 6.31421e-06
484.625 6.31584e-06
484.75 6.29849e-06
484.875 6.28113e-06
485 6.28275e-06
485.125 6.28437e-06
485.25 6.2209e-06
485.375 6.1574e-06
485.5 6.15899e-06
485.625 6.16057e-06
485.75 5.99143e-06
485.875 5.8222e-06
486 5.8237e-06
486.125 5.8252e-06
486.25 5.85283e-06
486.375 5.88047e-06
486.5 5.88199e-06
486.625 5.8835e-06
486.75 5.74804e-06
486.875 5.61252e-06
487 5.61396e-06
487.125 5.6154e-06
487.25 5.60334e-06
487.375 5.59128e-06
487.5 5.59271e-06
487.625 5.59415e-06
487.75 5.62411e-06
487.875 5.65408e-06
488 5.65553e-06
488.125 5.65698e-06
488.25 5.66617e-06
488.375 5.67536e-06
488.5 5.67681e-06
488.625 5.67827e-06
488.75 5.69603e-06
488.875 5.7138e-06
489 5.71526e-06
489.125 5.71672e-06
489.25 5.83172e-06
489.375 5.94678e-06
489.5 5.9483e-06
489.625 5.94982e-06
489.75 6.14218e-06
489.875 6.33464e-06
490 6.33626e-06
490.125 6.33787e-06
490.25 6.4057e-06
490.375 6.47356e-06
490.5 6.47521e-06
490.625 6.47686e-06
490.75 6.46215e-06
490.875 6.44744e-06
491 6.44908e-06
491.125 6.45073e-06
491.25 6.44017e-06
491.375 6.42961e-06
491.5 6.43125e-06
491.625 6.43289e-06
491.75 6.38521e-06
491.875 6.3375e-06
492 6.33911e-06
492.125 6.34072e-06
492.25 6.20668e-06
492.375 6.07256e-06
492.5 6.0741e-06
492.625 6.07565e-06
492.75 6.12635e-06
492.875 6.17709e-06
493 6.17865e-06
493.125 6.18022e-06
493.25 6.15313e-06
493.375 6.12601e-06
493.5 6.12757e-06
493.625 6.12912e-06
493.75 6.16926e-06
493.875 6.20943e-06
494 6.211e-06
494.125 6.21257e-06
494.25 6.28452e-06
494.375 6.3565e-06
494.5 6.35811e-06
494.625 6.35971e-06
494.75 6.43902e-06
494.875 6.51836e-06
495 6.52001e-06
495.125 6.52165e-06
495.25 6.54291e-06
495.375 6.56418e-06
495.5 6.56584e-06
495.625 6.5675e-06
495.75 6.43333e-06
495.875 6.29909e-06
496 6.30068e-06
496.125 6.30227e-06
496.25 6.2628e-06
496.375 6.2233e-06
496.5 6.22487e-06
496.625 6.22644e-06
496.75 6.22926e-06
496.875 6.23208e-06
497 6.23365e-06
497.125 6.23521e-06
497.25 6.22958e-06
497.375 6.22395e-06
497.5 6.22551e-06
497.625 6.22708e-06
497.75 6.15341e-06
497.875 6.0797e-06
498 6.08122e-06
498.125 6.08275e-06
498.25 6.01462e-06
498.375 5.94646e-06
498.5 5.94795e-06
498.625 5.94944e-06
498.75 6.03156e-06
498.875 6.11372e-06
499 6.11525e-06
499.125 6.11678e-06
499.25 6.16151e-06
499.375 6.20626e-06
499.5 6.20781e-06
499.625 6.20937e-06
499.75 6.23721e-06
499.875 6.26508e-06
500 6.26664e-06
500.125 6.26821e-06
500.25 6.27875e-06
500.375 6.2893e-06
500.5 6.29087e-06
500.625 6.29244e-06
500.75 6.27887e-06
500.875 6.26529e-06
501 6.26685e-06
501.125 6.26842e-06
501.25 6.22423e-06
501.375 6.18003e-06
501.5 6.18157e-06
501.625 6.18311e-06
501.75 6.12333e-06
501.875 6.06351e-06
502 6.06502e-06
502.125 6.06653e-06
502.25 6.11343e-06
502.375 6.16034e-06
502.5 6.16188e-06
502.625 6.16341e-06
502.75 6.26377e-06
502.875 6.36418e-06
503 6.36576e-06
503.125 6.36734e-06
503.25 6.36065e-06
503.375 6.35394e-06
503.5 6.35552e-06
503.625 6.3571e-06
503.75 6.31216e-06
503.875 6.26719e-06
504 6.26874e-06
504.125 6.2703e-06
504.25 6.2647e-06
504.375 6.2591e-06
504.5 6.26065e-06
504.625 6.2622e-06
504.75 6.32399e-06
504.875 6.38582e-06
505 6.3874e-06
505.125 6.38898e-06
505.25 6.36125e-06
505.375 6.33351e-06
505.5 6.33507e-06
505.625 6.33664e-06
505.75 6.41306e-06
505.875 6.48952e-06
506 6.49112e-06
506.125 6.49272e-06
506.25 6.56968e-06
506.375 6.64667e-06
506.5 6.64832e-06
506.625 6.64996e-06
506.75 6.65745e-06
506.875 6.66495e-06
507 6.66659e-06
507.125 6.66824e-06
507.25 6.57618e-06
507.375 6.48408e-06
507.5 6.48568e-06
507.625 6.48728e-06
507.75 6.32482e-06
507.875 6.16228e-06
508 6.1638e-06
508.125 6.16531e-06
508.25 6.27356e-06
508.375 6.38186e-06
508.5 6.38343e-06
508.625 6.385e-06
508.75 6.42811e-06
508.875 6.47124e-06
509 6.47283e-06
509.125 6.47442e-06
509.25 6.48686e-06
509.375 6.49932e-06
509.5 6.50091e-06
509.625 6.50251e-06
509.75 6.48386e-06
509.875 6.4652e-06
510 6.46678e-06
510.125 6.46837e-06
510.25 6.43412e-06
510.375 6.39986e-06
510.5 6.40142e-06
510.625 6.40299e-06
510.75 6.48276e-06
510.875 6.56257e-06
511 6.56417e-06
511.125 6.56578e-06
511.25 6.59985e-06
511.375 6.63394e-06
511.5 6.63556e-06
511.625 6.63718e-06
511.75 6.6384e-06
511.875 6.63962e-06
512 6.64124e-06
512.125 6.64286e-06
512.25 6.56173e-06
512.375 6.48057e-06
512.5 6.48215e-06
512.625 6.48373e-06
512.75 6.39244e-06
512.875 6.30111e-06
513 6.30264e-06
513.125 6.30418e-06
513.25 6.41866e-06
513.375 6.53319e-06
513.5 6.53478e-06
513.625 6.53637e-06
513.75 6.44373e-06
513.875 6.35104e-06
514 6.35259e-06
514.125 6.35413e-06
514.25 6.37157e-06
514.375 6.38902e-06
514.5 6.39057e-06
514.625 6.39212e-06
514.75 6.41683e-06
514.875 6.44154e-06
515 6.44311e-06
515.125 6.44467e-06
515.25 6.42613e-06
515.375 6.40758e-06
515.5 6.40914e-06
515.625 6.41069e-06
515.75 6.34394e-06
515.875 6.27715e-06
516 6.27867e-06
516.125 6.28019e-06
516.25 6.2608e-06
516.375 6.2414e-06
516.5 6.24291e-06
516.625 6.24443e-06
516.75 5.96326e-06
516.875 5.68196e-06
517 5.68334e-06
517.125 5.68471e-06
517.25 5.62201e-06
517.375 5.55928e-06
517.5 5.56062e-06
517.625 5.56196e-06
517.75 5.66535e-06
517.875 5.76879e-06
518 5.77018e-06
518.125 5.77158e-06
518.25 5.86127e-06
518.375 5.951e-06
518.5 5.95243e-06
518.625 5.95387e-06
518.75 5.99114e-06
518.875 6.02843e-06
519 6.02988e-06
519.125 6.03133e-06
519.25 6.17514e-06
519.375 6.31901e-06
519.5 6.32053e-06
519.625 6.32206e-06
519.75 6.46032e-06
519.875 6.59865e-06
520 6.60024e-06
520.125 6.60183e-06
520.25 6.65235e-06
520.375 6.70289e-06
520.5 6.7045e-06
520.625 6.70611e-06
520.75 6.63954e-06
520.875 6.57293e-06
521 6.57451e-06
521.125 6.57608e-06
521.25 6.50647e-06
521.375 6.43683e-06
521.5 6.43837e-06
521.625 6.43991e-06
521.75 6.51537e-06
521.875 6.59086e-06
522 6.59244e-06
522.125 6.59401e-06
522.25 6.54014e-06
522.375 6.48624e-06
522.5 6.48779e-06
522.625 6.48934e-06
522.75 6.47657e-06
522.875 6.46379e-06
523 6.46533e-06
523.125 6.46688e-06
523.25 6.61464e-06
523.375 6.76247e-06
523.5 6.76408e-06
523.625 6.7657e-06
523.75 6.83035e-06
523.875 6.89503e-06
524 6.89667e-06
524.125 6.89832e-06
524.25 6.94221e-06
524.375 6.98612e-06
524.5 6.98778e-06
524.625 6.98945e-06
524.75 6.93925e-06
524.875 6.88902e-06
525 6.89066e-06
525.125 6.8923e-06
525.25 6.83281e-06
525.375 6.7733e-06
525.5 6.77491e-06
525.625 6.77652e-06
525.75 6.76169e-06
525.875 6.74685e-06
526 6.74846e-06
526.125 6.75006e-06
526.25 6.5646e-06
526.375 6.37905e-06
526.5 6.38056e-06
526.625 6.38208e-06
526.75 6.22408e-06
526.875 6.06601e-06
527 6.06745e-06
527.125 6.06889e-06
527.25 6.18969e-06
527.375 6.31055e-06
527.5 6.31204e-06
527.625 6.31354e-06
527.75 6.54957e-06
527.875 6.78571e-06
528 6.78732e-06
528.125 6.78893e-06
528.25 6.89499e-06
528.375 7.00111e-06
528.5 7.00277e-06
528.625 7.00442e-06
528.75 7.11871e-06
528.875 7.23305e-06
529 7.23476e-06
529.125 7.23647e-06
529.25 7.22035e-06
529.375 7.20422e-06
529.5 7.20592e-06
529.625 7.20762e-06
529.75 7.17898e-06
529.875 7.15032e-06
530 7.15201e-06
530.125 7.1537e-06
530.25 7.17378e-06
530.375 7.19388e-06
530.5 7.19557e-06
530.625 7.19727e-06
530.75 7.30633e-06
530.875 7.41544e-06
531 7.41718e-06
531.125 7.41893e-06
531.25 7.34082e-06
531.375 7.26267e-06
531.5 7.26438e-06
531.625 7.26609e-06
531.75 7.24428e-06
531.875 7.22245e-06
532 7.22415e-06
532.125 7.22585e-06
532.25 7.17141e-06
532.375 7.11694e-06
532.5 7.11861e-06
532.625 7.12029e-06
532.75 7.02551e-06
532.875 6.93069e-06
533 6.93232e-06
533.125 6.93395e-06
533.25 6.95837e-06
533.375 6.9828e-06
533.5 6.98443e-06
533.625 6.98607e-06
533.75 6.99311e-06
533.875 7.00016e-06
534 7.0018e-06
534.125 7.00344e-06
534.25 7.02513e-06
534.375 7.04684e-06
534.5 7.04849e-06
534.625 7.05013e-06
534.75 7.11412e-06
534.875 7.17814e-06
535 7.17982e-06
535.125 7.18149e-06
535.25 7.30185e-06
535.375 7.42227e-06
535.5 7.424e-06
535.625 7.42573e-06
535.75 7.45076e-06
535.875 7.4758e-06
536 7.47754e-06
536.125 7.47928e-06
536.25 7.41767e-06
536.375 7.35602e-06
536.5 7.35774e-06
536.625 7.35945e-06
536.75 7.28829e-06
536.875 7.2171e-06
537 7.21878e-06
537.125 7.22046e-06
537.25 7.17788e-06
537.375 7.13528e-06
537.5 7.13694e-06
537.625 7.1386e-06
537.75 7.14415e-06
537.875 7.14971e-06
538 7.15138e-06
538.125 7.15304e-06
538.25 7.29441e-06
538.375 7.43586e-06
538.5 7.43758e-06
538.625 7.43931e-06
538.75 7.41716e-06
538.875 7.395e-06
539 7.39672e-06
539.125 7.39843e-06
539.25 7.32209e-06
539.375 7.2457e-06
539.5 7.24738e-06
539.625 7.24906e-06
539.75 7.27151e-06
539.875 7.29396e-06
540 7.29565e-06
540.125 7.29734e-06
540.25 7.30735e-06
540.375 7.31736e-06
540.5 7.31905e-06
540.625 7.32074e-06
540.75 7.34466e-06
540.875 7.36859e-06
541 7.37029e-06
541.125 7.37199e-06
541.25 7.38148e-06
541.375 7.39096e-06
541.5 7.39267e-06
541.625 7.39437e-06
541.75 7.38647e-06
541.875 7.37857e-06
542 7.38027e-06
542.125 7.38197e-06
542.25 7.40368e-06
542.375 7.42539e-06
542.5 7.4271e-06
542.625 7.42882e-06
542.75 7.44496e-06
542.875 7.4611e-06
543 7.46282e-06
543.125 7.46454e-06
543.25 7.42082e-06
543.375 7.37708e-06
543.5 7.37878e-06
543.625 7.38048e-06
543.75 7.35782e-06
543.875 7.33516e-06
544 7.33684e-06
544.125 7.33853e-06
544.25 7.51173e-06
544.375 7.685e-06
544.5 7.68677e-06
544.625 7.68853e-06
544.75 7.66537e-06
544.875 7.64221e-06
545 7.64396e-06
545.125 7.64571e-06
545.25 7.61592e-06
545.375 7.58611e-06
545.5 7.58785e-06
545.625 7.58959e-06
545.75 7.56145e-06
545.875 7.5333e-06
546 7.53502e-06
546.125 7.53675e-06
546.25 7.50864e-06
546.375 7.48051e-06
546.5 7.48222e-06
546.625 7.48393e-06
546.75 7.4578e-06
546.875 7.43165e-06
547 7.43335e-06
547.125 7.43505e-06
547.25 7.41844e-06
547.375 7.40183e-06
547.5 7.40352e-06
547.625 7.40521e-06
547.75 7.36394e-06
547.875 7.32265e-06
548 7.32432e-06
548.125 7.32599e-06
548.25 7.25594e-06
548.375 7.18585e-06
548.5 7.18749e-06
548.625 7.18913e-06
548.75 7.22176e-06
548.875 7.2544e-06
549 7.25605e-06
549.125 7.2577e-06
549.25 7.36969e-06
549.375 7.48173e-06
549.5 7.48343e-06
549.625 7.48513e-06
549.75 7.53729e-06
549.875 7.58946e-06
550 7.59119e-06
550.125 7.59292e-06
550.25 7.55212e-06
550.375 7.5113e-06
550.5 7.51301e-06
550.625 7.51471e-06
550.75 7.46754e-06
550.875 7.42034e-06
551 7.42203e-06
551.125 7.42371e-06
551.25 7.4289e-06
551.375 7.43408e-06
551.5 7.43577e-06
551.625 7.43745e-06
551.75 7.45399e-06
551.875 7.47053e-06
552 7.47222e-06
552.125 7.47391e-06
552.25 7.46355e-06
552.375 7.45317e-06
552.5 7.45486e-06
552.625 7.45655e-06
552.75 7.32838e-06
552.875 7.20016e-06
553 7.20179e-06
553.125 7.20342e-06
553.25 7.27485e-06
553.375 7.34633e-06
553.5 7.34798e-06
553.625 7.34964e-06
553.75 7.47786e-06
553.875 7.60613e-06
554 7.60785e-06
554.125 7.60957e-06
554.25 7.71394e-06
554.375 7.81835e-06
554.5 7.82012e-06
554.625 7.82188e-06
554.75 7.75854e-06
554.875 7.69518e-06
555 7.69691e-06
555.125 7.69864e-06
555.25 7.64165e-06
555.375 7.58462e-06
555.5 7.58633e-06
555.625 7.58804e-06
555.75 7.54419e-06
555.875 7.50032e-06
556 7.50201e-06
556.125 7.5037e-06
556.25 7.50263e-06
556.375 7.50155e-06
556.5 7.50324e-06
556.625 7.50492e-06
556.75 7.61752e-06
556.875 7.73016e-06
557 7.7319e-06
557.125 7.73363e-06
557.25 7.72292e-06
557.375 7.71221e-06
557.5 7.71394e-06
557.625 7.71567e-06
557.75 7.64002e-06
557.875 7.56435e-06
558 7.56604e-06
558.125 7.56774e-06
558.25 7.47108e-06
558.375 7.37438e-06
558.5 7.37603e-06
558.625 7.37768e-06
558.75 7.34747e-06
558.875 7.31724e-06
559 7.31888e-06
559.125 7.32051e-06
559.25 7.32688e-06
559.375 7.33324e-06
559.5 7.33488e-06
559.625 7.33652e-06
559.75 7.34677e-06
559.875 7.35702e-06
560 7.35866e-06
560.125 7.36031e-06
560.25 7.39622e-06
560.375 7.43215e-06
560.5 7.43381e-06
560.625 7.43547e-06
560.75 7.57717e-06
560.875 7.71893e-06
561 7.72065e-06
561.125 7.72237e-06
561.25 7.82323e-06
561.375 7.92414e-06
561.5 7.92591e-06
561.625 7.92767e-06
561.75 7.96413e-06
561.875 8.00061e-06
562 8.00239e-06
562.125 8.00417e-06
562.25 7.97019e-06
562.375 7.93619e-06
562.5 7.93796e-06
562.625 7.93972e-06
562.75 7.8265e-06
562.875 7.71323e-06
563 7.71495e-06
563.125 7.71666e-06
563.25 7.72779e-06
563.375 7.73893e-06
563.5 7.74065e-06
563.625 7.74237e-06
563.75 7.72395e-06
563.875 7.70553e-06
564 7.70724e-06
564.125 7.70895e-06
564.25 7.64178e-06
564.375 7.57457e-06
564.5 7.57625e-06
564.625 7.57793e-06
564.75 7.6262e-06
564.875 7.67449e-06
565 7.67619e-06
565.125 7.67789e-06
565.25 7.68032e-06
565.375 7.68275e-06
565.5 7.68445e-06
565.625 7.68615e-06
565.75 7.63927e-06
565.875 7.59237e-06
566 7.59404e-06
566.125 7.59572e-06
566.25 7.51256e-06
566.375 7.42936e-06
566.5 7.431e-06
566.625 7.43264e-06
566.75 7.58579e-06
566.875 7.73901e-06
567 7.74072e-06
567.125 7.74242e-06
567.25 7.78328e-06
567.375 7.82415e-06
567.5 7.82587e-06
567.625 7.8276e-06
567.75 7.85681e-06
567.875 7.88605e-06
568 7.88778e-06
568.125 7.88952e-06
568.25 7.9904e-06
568.375 8.09133e-06
568.5 8.09311e-06
568.625 8.09489e-06
568.75 8.16646e-06
568.875 8.23806e-06
569 8.23987e-06
569.125 8.24168e-06
569.25 8.21672e-06
569.375 8.19175e-06
569.5 8.19355e-06
569.625 8.19535e-06
569.75 8.10436e-06
569.875 8.01333e-06
570 8.01509e-06
570.125 8.01685e-06
570.25 7.90676e-06
570.375 7.79662e-06
570.5 7.79833e-06
570.625 7.80004e-06
570.75 7.74575e-06
570.875 7.69143e-06
571 7.69312e-06
571.125 7.6948e-06
571.25 7.7506e-06
571.375 7.80642e-06
571.5 7.80813e-06
571.625 7.80984e-06
571.75 7.95493e-06
571.875 8.10009e-06
572 8.10186e-06
572.125 8.10363e-06
572.25 8.21575e-06
572.375 8.32791e-06
572.5 8.32973e-06
572.625 8.33155e-06
572.75 8.37229e-06
572.875 8.41305e-06
573 8.41489e-06
573.125 8.41672e-06
573.25 8.44861e-06
573.375 8.48051e-06
573.5 8.48236e-06
573.625 8.4842e-06
573.75 8.52462e-06
573.875 8.56505e-06
574 8.56692e-06
574.125 8.56878e-06
574.25 8.38804e-06
574.375 8.20722e-06
574.5 8.20901e-06
574.625 8.21079e-06
574.75 8.20089e-06
574.875 8.19098e-06
575 8.19276e-06
575.125 8.19454e-06
575.25 8.22428e-06
575.375 8.25403e-06
575.5 8.25582e-06
575.625 8.25761e-06
575.75 8.16323e-06
575.875 8.0688e-06
576 8.07055e-06
576.125 8.07231e-06
576.25 8.09455e-06
576.375 8.11681e-06
576.5 8.11857e-06
576.625 8.12033e-06
576.75 8.19546e-06
576.875 8.27062e-06
577 8.27241e-06
577.125 8.2742e-06
577.25 8.36845e-06
577.375 8.46275e-06
577.5 8.46458e-06
577.625 8.46641e-06
577.75 8.45182e-06
577.875 8.43722e-06
578 8.43904e-06
578.125 8.44087e-06
578.25 8.39748e-06
578.375 8.35408e-06
578.5 8.35588e-06
578.625 8.35769e-06
578.75 8.32486e-06
578.875 8.29201e-06
579 8.2938e-06
579.125 8.29559e-06
579.25 8.29629e-06
579.375 8.29699e-06
579.5 8.29878e-06
579.625 8.30057e-06
579.75 8.38298e-06
579.875 8.46543e-06
580 8.46725e-06
580.125 8.46908e-06
580.25 8.4255e-06
580.375 8.38191e-06
580.5 8.38371e-06
580.625 8.38552e-06
580.75 8.28247e-06
580.875 8.17939e-06
581 8.18115e-06
581.125 8.18291e-06
581.25 8.18438e-06
581.375 8.18585e-06
581.5 8.18761e-06
581.625 8.18937e-06
581.75 8.20758e-06
581.875 8.2258e-06
582 8.22756e-06
582.125 8.22933e-06
582.25 8.2961e-06
582.375 8.3629e-06
582.5 8.3647e-06
582.625 8.36649e-06
582.75 8.49428e-06
582.875 8.62213e-06
583 8.62398e-06
583.125 8.62583e-06
583.25 8.71206e-06
583.375 8.79832e-06
583.5 8.80021e-06
583.625 8.80209e-06
583.75 8.72869e-06
583.875 8.65526e-06
584 8.65712e-06
584.125 8.65897e-06
584.25 8.54475e-06
584.375 8.43048e-06
584.5 8.43229e-06
584.625 8.43409e-06
584.75 8.50412e-06
584.875 8.57418e-06
585 8.57602e-06
585.125 8.57785e-06
585.25 8.62271e-06
585.375 8.66758e-06
585.5 8.66943e-06
585.625 8.67129e-06
585.75 8.68812e-06
585.875 8.70497e-06
586 8.70682e-06
586.125 8.70868e-06
586.25 8.69484e-06
586.375 8.68098e-06
586.5 8.68283e-06
586.625 8.68468e-06
586.75 8.67361e-06
586.875 8.66254e-06
587 8.66438e-06
587.125 8.66623e-06
587.25 8.64023e-06
587.375 8.61422e-06
587.5 8.61606e-06
587.625 8.61789e-06
587.75 8.5814e-06
587.875 8.5449e-06
588 8.54672e-06
588.125 8.54854e-06
588.25 8.50747e-06
588.375 8.46638e-06
588.5 8.46818e-06
588.625 8.46998e-06
588.75 8.09844e-06
588.875 7.72675e-06
589 7.72839e-06
589.125 7.73003e-06
589.25 7.43971e-06
589.375 7.14926e-06
589.5 7.15077e-06
589.625 7.15229e-06
589.75 7.1181e-06
589.875 7.0839e-06
590 7.0854e-06
590.125 7.0869e-06
590.25 7.38619e-06
590.375 7.68561e-06
590.5 7.68724e-06
590.625 7.68887e-06
590.75 7.8322e-06
590.875 7.97559e-06
591 7.97728e-06
591.125 7.97897e-06
591.25 7.99701e-06
591.375 8.01507e-06
591.5 8.01676e-06
591.625 8.01846e-06
591.75 8.04433e-06
591.875 8.07021e-06
592 8.07192e-06
592.125 8.07362e-06
592.25 8.00159e-06
592.375 7.92953e-06
592.5 7.9312e-06
592.625 7.93287e-06
592.75 7.89247e-06
592.875 7.85205e-06
593 7.8537e-06
593.125 7.85536e-06
593.25 7.96443e-06
593.375 8.07354e-06
593.5 8.07524e-06
593.625 8.07694e-06
593.75 8.1958e-06
593.875 8.3147e-06
594 8.31645e-06
594.125 8.3182e-06
594.25 8.36614e-06
594.375 8.4141e-06
594.5 8.41587e-06
594.625 8.41764e-06
594.75 8.38249e-06
594.875 8.34731e-06
595 8.34907e-06
595.125 8.35082e-06
595.25 8.28494e-06
595.375 8.21902e-06
595.5 8.22075e-06
595.625 8.22247e-06
595.75 8.28734e-06
595.875 8.35223e-06
596 8.35398e-06
596.125 8.35573e-06
596.25 8.46337e-06
596.375 8.57106e-06
596.5 8.57285e-06
596.625 8.57465e-06
596.75 8.52256e-06
596.875 8.47044e-06
597 8.47221e-06
597.125 8.47399e-06
597.25 8.41124e-06
597.375 8.34846e-06
597.5 8.35021e-06
597.625 8.35196e-06
597.75 8.25159e-06
597.875 8.15117e-06
598 8.15288e-06
598.125 8.15458e-06
598.25 7.98487e-06
598.375 7.81508e-06
598.5 7.81671e-06
598.625 7.81835e-06
598.75 7.95034e-06
598.875 8.08238e-06
599 8.08407e-06
599.125 8.08576e-06
599.25 8.13589e-06
599.375 8.18603e-06
599.5 8.18774e-06
599.625 8.18945e-06
599.75 8.10979e-06
599.875 8.03009e-06
600 8.03176e-06
600.125 8.03344e-06
600.25 8.09334e-06
600.375 8.15326e-06
600.5 8.15496e-06
600.625 8.15665e-06
600.75 8.07856e-06
600.875 8.00042e-06
601 8.00209e-06
601.125 8.00375e-06
601.25 7.87283e-06
601.375 7.74185e-06
601.5 7.74346e-06
601.625 7.74507e-06
601.75 7.85642e-06
601.875 7.96781e-06
602 7.96946e-06
602.125 7.97112e-06
602.25 8.04789e-06
602.375 8.12469e-06
602.5 8.12637e-06
602.625 8.12806e-06
602.75 8.1574e-06
602.875 8.18675e-06
603 8.18844e-06
603.125 8.19014e-06
603.25 8.12775e-06
603.375 8.06533e-06
603.5 8.067e-06
603.625 8.06867e-06
603.75 8.13154e-06
603.875 8.19444e-06
604 8.19614e-06
604.125 8.19783e-06
604.25 8.26706e-06
604.375 8.33632e-06
604.5 8.33805e-06
604.625 8.33977e-06
604.75 8.3744e-06
604.875 8.40905e-06
605 8.41079e-06
605.125 8.41253e-06
605.25 8.52738e-06
605.375 8.64228e-06
605.5 8.64406e-06
605.625 8.64585e-06
605.75 8.6663e-06
605.875 8.68677e-06
606 8.68856e-06
606.125 8.69035e-06
606.25 8.60014e-06
606.375 8.50988e-06
606.5 8.51164e-06
606.625 8.51339e-06
606.75 8.40808e-06
606.875 8.30272e-06
607 8.30443e-06
607.125 8.30614e-06
607.25 8.29072e-06
607.375 8.2753e-06
607.5 8.277e-06
607.625 8.2787e-06
607.75 8.30998e-06
607.875 8.34127e-06
608 8.34298e-06
608.125 8.3447e-06
608.25 8.22259e-06
608.375 8.10043e-06
608.5 8.10209e-06
608.625 8.10376e-06
608.75 8.20565e-06
608.875 8.30759e-06
609 8.30929e-06
609.125 8.311e-06
609.25 8.44066e-06
609.375 8.57038e-06
609.5 8.57213e-06
609.625 8.57389e-06
609.75 8.3573e-06
609.875 8.14061e-06
610 8.14228e-06
610.125 8.14395e-06
610.25 8.21204e-06
610.375 8.28016e-06
610.5 8.28186e-06
610.625 8.28355e-06
610.75 8.42154e-06
610.875 8.55959e-06
611 8.56134e-06
611.125 8.56309e-06
611.25 8.62547e-06
611.375 8.68788e-06
611.5 8.68966e-06
611.625 8.69143e-06
611.75 8.68541e-06
611.875 8.67937e-06
612 8.68115e-06
612.125 8.68292e-06
612.25 8.64597e-06
612.375 8.60901e-06
612.5 8.61077e-06
612.625 8.61253e-06
612.75 8.54679e-06
612.875 8.48103e-06
613 8.48276e-06
613.125 8.48449e-06
613.25 8.40407e-06
613.375 8.32362e-06
613.5 8.32532e-06
613.625 8.32702e-06
613.75 8.30537e-06
613.875 8.28372e-06
614 8.2854e-06
614.125 8.28709e-06
614.25 8.3517e-06
614.375 8.41633e-06
614.5 8.41804e-06
614.625 8.41976e-06
614.75 8.3134e-06
614.875 8.20699e-06
615 8.20866e-06
615.125 8.21033e-06
615.25 8.14898e-06
615.375 8.0876e-06
615.5 8.08924e-06
615.625 8.09088e-06
615.75 8.09224e-06
615.875 8.09359e-06
616 8.09523e-06
616.125 8.09687e-06
616.25 7.98369e-06
616.375 7.87047e-06
616.5 7.87206e-06
616.625 7.87366e-06
616.75 7.76078e-06
616.875 7.64785e-06
617 7.6494e-06
617.125 7.65095e-06
617.25 7.55515e-06
617.375 7.45931e-06
617.5 7.46083e-06
617.625 7.46234e-06
617.75 7.74397e-06
617.875 8.02572e-06
618 8.02735e-06
618.125 8.02897e-06
618.25 8.16462e-06
618.375 8.30033e-06
618.5 8.30201e-06
618.625 8.30368e-06
618.75 8.33025e-06
618.875 8.35684e-06
619 8.35852e-06
619.125 8.36021e-06
619.25 8.44153e-06
619.375 8.52288e-06
619.5 8.5246e-06
619.625 8.52632e-06
619.75 8.56354e-06
619.875 8.60077e-06
620 8.6025e-06
620.125 8.60424e-06
620.25 8.58996e-06
620.375 8.57568e-06
620.5 8.57741e-06
620.625 8.57914e-06
620.75 8.39259e-06
620.875 8.20596e-06
621 8.20762e-06
621.125 8.20927e-06
621.25 8.14844e-06
621.375 8.0876e-06
621.5 8.08922e-06
621.625 8.09085e-06
621.75 8.10252e-06
621.875 8.1142e-06
622 8.11583e-06
622.125 8.11746e-06
622.25 8.11098e-06
622.375 8.1045e-06
622.5 8.10613e-06
622.625 8.10776e-06
622.75 8.10343e-06
622.875 8.09911e-06
623 8.10073e-06
623.125 8.10236e-06
623.25 8.09775e-06
623.375 8.09314e-06
623.5 8.09476e-06
623.625 8.09638e-06
623.75 8.08371e-06
623.875 8.07103e-06
624 8.07265e-06
624.125 8.07427e-06
624.25 8.07544e-06
624.375 8.07661e-06
624.5 8.07823e-06
624.625 8.07984e-06
624.75 8.10455e-06
624.875 8.12927e-06
625 8.1309e-06
625.125 8.13253e-06
625.25 8.24095e-06
625.375 8.34942e-06
625.5 8.35108e-06
625.625 8.35275e-06
625.75 8.40231e-06
625.875 8.45188e-06
626 8.45357e-06
626.125 8.45526e-06
626.25 8.48256e-06
626.375 8.50987e-06
626.5 8.51157e-06
626.625 8.51327e-06
626.75 8.5763e-06
626.875 8.63936e-06
627 8.64108e-06
627.125 8.64281e-06
627.25 8.70466e-06
627.375 8.76653e-06
627.5 8.76828e-06
627.625 8.77002e-06
627.75 8.81629e-06
627.875 8.86258e-06
628 8.86434e-06
628.125 8.8661e-06
628.25 8.83551e-06
628.375 8.80491e-06
628.5 8.80666e-06
628.625 8.80841e-06
628.75 8.85484e-06
628.875 8.90129e-06
629 8.90306e-06
629.125 8.90483e-06
629.25 8.97625e-06
629.375 9.0477e-06
629.5 9.0495e-06
629.625 9.05129e-06
629.75 9.03904e-06
629.875 9.02678e-06
630 9.02857e-06
630.125 9.03036e-06
630.25 8.9942e-06
630.375 8.95802e-06
630.5 8.9598e-06
630.625 8.96157e-06
630.75 8.91286e-06
630.875 8.86412e-06
631 8.86588e-06
631.125 8.86763e-06
631.25 8.82314e-06
631.375 8.77862e-06
631.5 8.78036e-06
631.625 8.7821e-06
631.75 8.8018e-06
631.875 8.82151e-06
632 8.82325e-06
632.125 8.825e-06
632.25 8.87998e-06
632.375 8.93498e-06
632.5 8.93675e-06
632.625 8.93851e-06
632.75 8.96128e-06
632.875 8.98405e-06
633 8.98582e-06
633.125 8.9876e-06
633.25 8.94811e-06
633.375 8.90861e-06
633.5 8.91037e-06
633.625 8.91213e-06
633.75 8.83785e-06
633.875 8.76353e-06
634 8.76526e-06
634.125 8.76699e-06
634.25 8.79294e-06
634.375 8.8189e-06
634.5 8.82064e-06
634.625 8.82238e-06
634.75 8.84767e-06
634.875 8.87298e-06
635 8.87473e-06
635.125 8.87647e-06
635.25 8.9008e-06
635.375 8.92514e-06
635.5 8.92689e-06
635.625 8.92865e-06
635.75 8.94038e-06
635.875 8.95211e-06
636 8.95387e-06
636.125 8.95563e-06
636.25 8.97583e-06
636.375 8.99604e-06
636.5 8.9978e-06
636.625 8.99957e-06
636.75 9.02786e-06
636.875 9.05615e-06
637 9.05793e-06
637.125 9.05971e-06
637.25 9.15135e-06
637.375 9.24303e-06
637.5 9.24485e-06
637.625 9.24666e-06
637.75 9.30698e-06
637.875 9.36733e-06
638 9.36916e-06
638.125 9.371e-06
638.25 9.39358e-06
638.375 9.41618e-06
638.5 9.41802e-06
638.625 9.41986e-06
638.75 9.35023e-06
638.875 9.28058e-06
639 9.28239e-06
639.125 9.28421e-06
639.25 9.24844e-06
639.375 9.21265e-06
639.5 9.21445e-06
639.625 9.21625e-06
639.75 9.24088e-06
639.875 9.26552e-06
640 9.26733e-06
640.125 9.26914e-06
640.25 9.25539e-06
640.375 9.24164e-06
640.5 9.24344e-06
640.625 9.24525e-06
640.75 9.22024e-06
640.875 9.19522e-06
641 9.19702e-06
641.125 9.19881e-06
641.25 9.1629e-06
641.375 9.12698e-06
641.5 9.12876e-06
641.625 9.13054e-06
641.75 9.14393e-06
641.875 9.15733e-06
642 9.15912e-06
642.125 9.1609e-06
642.25 9.17208e-06
642.375 9.18326e-06
642.5 9.18504e-06
642.625 9.18683e-06
642.75 9.15728e-06
642.875 9.12772e-06
643 9.1295e-06
643.125 9.13127e-06
643.25 9.16675e-06
643.375 9.20224e-06
643.5 9.20403e-06
643.625 9.20582e-06
643.75 9.25774e-06
643.875 9.30968e-06
644 9.31149e-06
644.125 9.3133e-06
644.25 9.32781e-06
644.375 9.34233e-06
644.5 9.34414e-06
644.625 9.34595e-06
644.75 9.3236e-06
644.875 9.30123e-06
645 9.30304e-06
645.125 9.30484e-06
645.25 9.27336e-06
645.375 9.24187e-06
645.5 9.24366e-06
645.625 9.24545e-06
645.75 9.32604e-06
645.875 9.40665e-06
646 9.40847e-06
646.125 9.41029e-06
646.25 9.38555e-06
646.375 9.36079e-06
646.5 9.3626e-06
646.625 9.36441e-06
646.75 9.25276e-06
646.875 9.14107e-06
647 9.14284e-06
647.125 9.1446e-06
647.25 9.22861e-06
647.375 9.31265e-06
647.5 9.31445e-06
647.625 9.31625e-06
647.75 9.34544e-06
647.875 9.37464e-06
648 9.37645e-06
648.125 9.37826e-06
648.25 9.33991e-06
648.375 9.30155e-06
648.5 9.30334e-06
648.625 9.30514e-06
648.75 9.22539e-06
648.875 9.14562e-06
649 9.14738e-06
649.125 9.14914e-06
649.25 9.08762e-06
649.375 9.02608e-06
649.5 9.02781e-06
649.625 9.02955e-06
649.75 9.01227e-06
649.875 8.99497e-06
650 8.9967e-06
650.125 8.99843e-06
650.25 9.06602e-06
650.375 9.13363e-06
650.5 9.13538e-06
650.625 9.13714e-06
650.75 9.21533e-06
650.875 9.29356e-06
651 9.29534e-06
651.125 9.29713e-06
651.25 9.33319e-06
651.375 9.36926e-06
651.5 9.37106e-06
651.625 9.37285e-06
651.75 9.3885e-06
651.875 9.40416e-06
652 9.40596e-06
652.125 9.40776e-06
652.25 9.41709e-06
652.375 9.42643e-06
652.5 9.42823e-06
652.625 9.43004e-06
652.75 9.47129e-06
652.875 9.51256e-06
653 9.51438e-06
653.125 9.5162e-06
653.25 9.5696e-06
653.375 9.62301e-06
653.5 9.62485e-06
653.625 9.62669e-06
653.75 9.69029e-06
653.875 9.75392e-06
654 9.75578e-06
654.125 9.75765e-06
654.25 9.79177e-06
654.375 9.8259e-06
654.5 9.82778e-06
654.625 9.82966e-06
654.75 9.83611e-06
654.875 9.84257e-06
655 9.84445e-06
655.125 9.84633e-06
655.25 9.81396e-06
655.375 9.78158e-06
655.5 9.78345e-06
655.625 9.78531e-06
655.75 1.012e-05
655.875 1.04548e-05
656 1.04568e-05
656.125 1.04588e-05
656.25 1.06598e-05
656.375 1.08608e-05
656.5 1.08629e-05
656.625 1.0865e-05
656.75 1.05183e-05
656.875 1.01714e-05
657 1.01734e-05
657.125 1.01753e-05
657.25 1.00918e-05
657.375 1.00083e-05
657.5 1.00102e-05
657.625 1.00121e-05
657.75 1.00678e-05
657.875 1.01236e-05
658 1.01255e-05
658.125 1.01274e-05
658.25 1.0363e-05
658.375 1.05986e-05
658.5 1.06006e-05
658.625 1.06026e-05
658.75 1.0444e-05
658.875 1.02854e-05
659 1.02873e-05
659.125 1.02893e-05
659.25 9.80281e-06
659.375 9.31617e-06
659.5 9.31794e-06
659.625 9.3197e-06
659.75 9.26634e-06
659.875 9.21295e-06
660 9.2147e-06
660.125 9.21644e-06
660.25 9.2191e-06
660.375 9.22176e-06
660.5 9.2235e-06
660.625 9.22525e-06
660.75 9.2935e-06
660.875 9.36177e-06
661 9.36354e-06
661.125 9.36532e-06
661.25 9.42479e-06
661.375 9.48429e-06
661.5 9.48609e-06
661.625 9.48788e-06
661.75 9.5074e-06
661.875 9.52693e-06
662 9.52873e-06
662.125 9.53053e-06
662.25 9.41624e-06
662.375 9.3019e-06
662.5 9.30366e-06
662.625 9.30542e-06
662.75 9.25536e-06
662.875 9.20528e-06
663 9.20702e-06
663.125 9.20875e-06
663.25 9.1983e-06
663.375 9.18785e-06
663.5 9.18958e-06
663.625 9.19131e-06
663.75 9.23404e-06
663.875 9.27678e-06
664 9.27853e-06
664.125 9.28027e-06
664.25 9.30373e-06
664.375 9.3272e-06
664.5 9.32895e-06
664.625 9.33071e-06
664.75 9.33125e-06
664.875 9.3318e-06
665 9.33355e-06
665.125 9.33531e-06
665.25 9.34017e-06
665.375 9.34504e-06
665.5 9.34679e-06
665.625 9.34855e-06
665.75 9.34479e-06
665.875 9.34103e-06
666 9.34279e-06
666.125 9.34454e-06
666.25 9.31575e-06
666.375 9.28696e-06
666.5 9.2887e-06
666.625 9.29044e-06
666.75 9.31511e-06
666.875 9.33979e-06
667 9.34154e-06
667.125 9.3433e-06
667.25 9.38386e-06
667.375 9.42445e-06
667.5 9.42621e-06
667.625 9.42798e-06
667.75 9.35281e-06
667.875 9.27762e-06
668 9.27936e-06
668.125 9.2811e-06
668.25 9.26498e-06
668.375 9.24885e-06
668.5 9.25058e-06
668.625 9.25231e-06
668.75 9.30085e-06
668.875 9.3494e-06
669 9.35115e-06
669.125 9.3529e-06
669.25 9.33491e-06
669.375 9.31691e-06
669.5 9.31865e-06
669.625 9.32039e-06
669.75 9.30903e-06
669.875 9.29765e-06
670 9.29939e-06
670.125 9.30112e-06
670.25 9.33229e-06
670.375 9.36348e-06
670.5 9.36522e-06
670.625 9.36697e-06
670.75 9.47015e-06
670.875 9.57336e-06
671 9.57514e-06
671.125 9.57693e-06
671.25 9.70659e-06
671.375 9.8363e-06
671.5 9.83813e-06
671.625 9.83997e-06
671.75 9.82792e-06
671.875 9.81588e-06
672 9.8177e-06
672.125 9.81953e-06
672.25 9.84616e-06
672.375 9.87281e-06
672.5 9.87464e-06
672.625 9.87648e-06
672.75 9.95013e-06
672.875 1.00238e-05
673 1.00257e-05
673.125 1.00275e-05
673.25 9.93257e-06
673.375 9.83757e-06
673.5 9.83939e-06
673.625 9.84122e-06
673.75 9.7303e-06
673.875 9.61933e-06
674 9.62112e-06
674.125 9.6229e-06
674.25 9.56635e-06
674.375 9.50977e-06
674.5 9.51154e-06
674.625 9.5133e-06
674.75 9.43592e-06
674.875 9.35851e-06
675 9.36024e-06
675.125 9.36198e-06
675.25 9.27146e-06
675.375 9.18092e-06
675.5 9.18262e-06
675.625 9.18431e-06
675.75 9.23426e-06
675.875 9.28423e-06
676 9.28595e-06
676.125 9.28767e-06
676.25 9.31819e-06
676.375 9.34873e-06
676.5 9.35046e-06
676.625 9.35219e-06
676.75 9.34962e-06
676.875 9.34705e-06
677 9.34877e-06
677.125 9.3505e-06
677.25 9.36803e-06
677.375 9.38557e-06
677.5 9.3873e-06
677.625 9.38903e-06
677.75 9.41411e-06
677.875 9.43921e-06
678 9.44095e-06
678.125 9.44269e-06
678.25 9.47481e-06
678.375 9.50693e-06
678.5 9.50869e-06
678.625 9.51044e-06
678.75 9.5098e-06
678.875 9.50916e-06
679 9.51091e-06
679.125 9.51266e-06
679.25 9.48044e-06
679.375 9.4482e-06
679.5 9.44994e-06
679.625 9.45167e-06
679.75 9.47291e-06
679.875 9.49416e-06
680 9.4959e-06
680.125 9.49765e-06
680.25 9.52262e-06
680.375 9.5476e-06
680.5 9.54935e-06
680.625 9.55111e-06
680.75 9.56618e-06
680.875 9.58126e-06
681 9.58302e-06
681.125 9.58478e-06
681.25 9.6103e-06
681.375 9.63583e-06
681.5 9.6376e-06
681.625 9.63937e-06
681.75 9.67118e-06
681.875 9.703e-06
682 9.70478e-06
682.125 9.70656e-06
682.25 9.62856e-06
682.375 9.55054e-06
682.5 9.55229e-06
682.625 9.55404e-06
682.75 9.50651e-06
682.875 9.45896e-06
683 9.46069e-06
683.125 9.46242e-06
683.25 9.47148e-06
683.375 9.48053e-06
683.5 9.48227e-06
683.625 9.484e-06
683.75 9.45887e-06
683.875 9.43373e-06
684 9.43546e-06
684.125 9.43718e-06
684.25 9.40235e-06
684.375 9.3675e-06
684.5 9.36922e-06
684.625 9.37093e-06
684.75 9.37501e-06
684.875 9.37909e-06
685 9.38081e-06
685.125 9.38252e-06
685.25 9.3873e-06
685.375 9.39209e-06
685.5 9.3938e-06
685.625 9.39551e-06
685.75 9.40119e-06
685.875 9.40686e-06
686 9.40857e-06
686.125 9.41029e-06
686.25 9.43132e-06
686.375 9.45237e-06
686.5 9.45409e-06
686.625 9.45581e-06
686.75 9.48131e-06
686.875 9.50682e-06
687 9.50855e-06
687.125 9.51028e-06
687.25 9.53906e-06
687.375 9.56786e-06
687.5 9.5696e-06
687.625 9.57134e-06
687.75 9.58125e-06
687.875 9.59116e-06
688 9.5929e-06
688.125 9.59464e-06
688.25 9.58639e-06
688.375 9.57812e-06
688.5 9.57986e-06
688.625 9.5816e-06
688.75 9.64657e-06
688.875 9.71155e-06
689 9.71331e-06
689.125 9.71508e-06
689.25 9.78277e-06
689.375 9.85048e-06
689.5 9.85227e-06
689.625 9.85405e-06
689.75 9.88832e-06
689.875 9.9226e-06
690 9.92439e-06
690.125 9.92619e-06
690.25 9.97835e-06
690.375 1.00305e-05
690.5 1.00323e-05
690.625 1.00342e-05
690.75 1.01004e-05
690.875 1.01667e-05
691 1.01685e-05
691.125 1.01704e-05
691.25 1.01059e-05
691.375 1.00415e-05
691.5 1.00433e-05
691.625 1.00451e-05
691.75 9.97875e-06
691.875 9.91237e-06
692 9.91416e-06
692.125 9.91595e-06
692.25 9.88483e-06
692.375 9.8537e-06
692.5 9.85548e-06
692.625 9.85726e-06
692.75 9.84722e-06
692.875 9.83718e-06
693 9.83896e-06
693.125 9.84073e-06
693.25 9.84528e-06
693.375 9.84983e-06
693.5 9.8516e-06
693.625 9.85338e-06
693.75 9.89037e-06
693.875 9.92738e-06
694 9.92917e-06
694.125 9.93095e-06
694.25 9.95142e-06
694.375 9.97189e-06
694.5 9.97368e-06
694.625 9.97548e-06
694.75 9.94465e-06
694.875 9.91382e-06
695 9.9156e-06
695.125 9.91739e-06
695.25 9.93905e-06
695.375 9.96071e-06
695.5 9.9625e-06
695.625 9.96429e-06
695.75 1.00201e-05
695.875 1.00759e-05
696 1.00777e-05
696.125 1.00796e-05
696.25 1.00985e-05
696.375 1.01174e-05
696.5 1.01192e-05
696.625 1.01211e-05
696.75 1.01177e-05
696.875 1.01143e-05
697 1.01161e-05
697.125 1.01179e-05
697.25 1.0061e-05
697.375 1.00041e-05
697.5 1.00059e-05
697.625 1.00077e-05
697.75 9.98706e-06
697.875 9.9664e-06
698 9.96819e-06
698.125 9.96997e-06
698.25 9.97329e-06
698.375 9.9766e-06
698.5 9.97839e-06
698.625 9.98017e-06
698.75 1.00226e-05
698.875 1.00651e-05
699 1.00669e-05
699.125 1.00687e-05
699.25 1.00892e-05
699.375 1.01097e-05
699.5 1.01115e-05
699.625 1.01133e-05
699.75 1.00614e-05
699.875 1.00095e-05
700 1.00113e-05
700.125 1.00131e-05
700.25 1.00097e-05
700.375 1.00064e-05
700.5 1.00082e-05
700.625 1.001e-05
700.75 1.00418e-05
700.875 1.00736e-05
701 1.00754e-05
701.125 1.00772e-05
701.25 1.0052e-05
701.375 1.00268e-05
701.5 1.00286e-05
701.625 1.00303e-05
701.75 1.0011e-05
701.875 9.99171e-06
702 9.99349e-06
702.125 9.99527e-06
702.25 1.00183e-05
702.375 1.00414e-05
702.5 1.00432e-05
702.625 1.0045e-05
702.75 1.00534e-05
702.875 1.00618e-05
703 1.00636e-05
703.125 1.00654e-05
703.25 1.00613e-05
703.375 1.00573e-05
703.5 1.00591e-05
703.625 1.00609e-05
703.75 1.01504e-05
703.875 1.02399e-05
704 1.02417e-05
704.125 1.02435e-05
704.25 1.03164e-05
704.375 1.03893e-05
704.5 1.03911e-05
704.625 1.0393e-05
704.75 1.03078e-05
704.875 1.02226e-05
705 1.02244e-05
705.125 1.02262e-05
705.25 1.01264e-05
705.375 1.00265e-05
705.5 1.00283e-05
705.625 1.00301e-05
705.75 9.9146e-06
705.875 9.79906e-06
706 9.8008e-06
706.125 9.80254e-06
706.25 9.74822e-06
706.375 9.69389e-06
706.5 9.69561e-06
706.625 9.69733e-06
706.75 9.66679e-06
706.875 9.63625e-06
707 9.63796e-06
707.125 9.63966e-06
707.25 9.67893e-06
707.375 9.71821e-06
707.5 9.71992e-06
707.625 9.72164e-06
707.75 9.71914e-06
707.875 9.71664e-06
708 9.71835e-06
708.125 9.72007e-06
708.25 9.65642e-06
708.375 9.59275e-06
708.5 9.59444e-06
708.625 9.59613e-06
708.75 9.55003e-06
708.875 9.50392e-06
709 9.5056e-06
709.125 9.50727e-06
709.25 9.46865e-06
709.375 9.43001e-06
709.5 9.43167e-06
709.625 9.43333e-06
709.75 9.41638e-06
709.875 9.39942e-06
710 9.40107e-06
710.125 9.40273e-06
710.25 9.40301e-06
710.375 9.40329e-06
710.5 9.40495e-06
710.625 9.4066e-06
710.75 9.44518e-06
710.875 9.48377e-06
711 9.48544e-06
711.125 9.48711e-06
711.25 9.50702e-06
711.375 9.52695e-06
711.5 9.52862e-06
711.625 9.5303e-06
711.75 9.5382e-06
711.875 9.5461e-06
712 9.54778e-06
712.125 9.54946e-06
712.25 9.46404e-06
712.375 9.37859e-06
712.5 9.38024e-06
712.625 9.38188e-06
712.75 9.30962e-06
712.875 9.23734e-06
713 9.23896e-06
713.125 9.24058e-06
713.25 9.26159e-06
713.375 9.28261e-06
713.5 9.28424e-06
713.625 9.28587e-06
713.75 9.2917e-06
713.875 9.29754e-06
714 9.29917e-06
714.125 9.3008e-06
714.25 9.29084e-06
714.375 9.28088e-06
714.5 9.28251e-06
714.625 9.28413e-06
714.75 9.3503e-06
714.875 9.41649e-06
715 9.41813e-06
715.125 9.41978e-06
715.25 9.50114e-06
715.375 9.58253e-06
715.5 9.58421e-06
715.625 9.58588e-06
715.75 9.57749e-06
715.875 9.56909e-06
716 9.57076e-06
716.125 9.57243e-06
716.25 9.5529e-06
716.375 9.53337e-06
716.5 9.53503e-06
716.625 9.5367e-06
716.75 9.4967e-06
716.875 9.45669e-06
717 9.45834e-06
717.125 9.45999e-06
717.25 9.4792e-06
717.375 9.49843e-06
717.5 9.50009e-06
717.625 9.50174e-06
717.75 9.55485e-06
717.875 9.60798e-06
718 9.60965e-06
718.125 9.61133e-06
718.25 9.49712e-06
718.375 9.38287e-06
718.5 9.3845e-06
718.625 9.38614e-06
718.75 9.29873e-06
718.875 9.21128e-06
719 9.21289e-06
719.125 9.21449e-06
719.25 9.299e-06
719.375 9.38355e-06
719.5 9.38518e-06
719.625 9.38681e-06
719.75 9.45875e-06
719.875 9.53071e-06
720 9.53237e-06
720.125 9.53402e-06
720.25 9.59199e-06
720.375 9.64997e-06
720.5 9.65165e-06
720.625 9.65332e-06
720.75 9.59328e-06
720.875 9.53322e-06
721 9.53488e-06
721.125 9.53653e-06
721.25 9.4409e-06
721.375 9.34523e-06
721.5 9.34685e-06
721.625 9.34847e-06
721.75 9.43053e-06
721.875 9.51261e-06
722 9.51426e-06
722.125 9.5159e-06
722.25 9.58949e-06
722.375 9.66309e-06
722.5 9.66477e-06
722.625 9.66644e-06
722.75 9.71959e-06
722.875 9.77276e-06
723 9.77445e-06
723.125 9.77614e-06
723.25 9.78747e-06
723.375 9.79881e-06
723.5 9.80051e-06
723.625 9.8022e-06
723.75 9.78095e-06
723.875 9.7597e-06
724 9.76138e-06
724.125 9.76307e-06
724.25 9.76464e-06
724.375 9.76621e-06
724.5 9.76789e-06
724.625 9.76958e-06
724.75 9.77656e-06
724.875 9.78354e-06
725 9.78523e-06
725.125 9.78692e-06
725.25 9.80073e-06
725.375 9.81454e-06
725.5 9.81624e-06
725.625 9.81793e-06
725.75 9.84519e-06
725.875 9.87246e-06
726 9.87416e-06
726.125 9.87586e-06
726.25 9.92742e-06
726.375 9.97901e-06
726.5 9.98072e-06
726.625 9.98244e-06
726.75 1.00153e-05
726.875 1.00482e-05
727 1.005e-05
727.125 1.00517e-05
727.25 1.0073e-05
727.375 1.00943e-05
727.5 1.0096e-05
727.625 1.00977e-05
727.75 1.00066e-05
727.875 9.91544e-06
728 9.91714e-06
728.125 9.91884e-06
728.25 9.83307e-06
728.375 9.74727e-06
728.5 9.74894e-06
728.625 9.75062e-06
728.75 9.8039e-06
728.875 9.8572e-06
729 9.85889e-06
729.125 9.86058e-06
729.25 9.91144e-06
729.375 9.96231e-06
729.5 9.96402e-06
729.625 9.96573e-06
729.75 1.00127e-05
729.875 1.00598e-05
730 1.00615e-05
730.125 1.00632e-05
730.25 1.0141e-05
730.375 1.02188e-05
730.5 1.02206e-05
730.625 1.02223e-05
730.75 1.03175e-05
730.875 1.04128e-05
731 1.04145e-05
731.125 1.04163e-05
731.25 1.03725e-05
731.375 1.03287e-05
731.5 1.03304e-05
731.625 1.03322e-05
731.75 1.02801e-05
731.875 1.0228e-05
732 1.02298e-05
732.125 1.02315e-05
732.25 1.02361e-05
732.375 1.02407e-05
732.5 1.02424e-05
732.625 1.02442e-05
732.75 1.02562e-05
732.875 1.02682e-05
733 1.027e-05
733.125 1.02717e-05
733.25 1.02957e-05
733.375 1.03197e-05
733.5 1.03215e-05
733.625 1.03233e-05
733.75 1.035e-05
733.875 1.03768e-05
734 1.03785e-05
734.125 1.03803e-05
734.25 1.04087e-05
734.375 1.0437e-05
734.5 1.04388e-05
734.625 1.04406e-05
734.75 1.037e-05
734.875 1.02993e-05
735 1.03011e-05
735.125 1.03028e-05
735.25 1.02275e-05
735.375 1.01521e-05
735.5 1.01538e-05
735.625 1.01555e-05
735.75 1.01641e-05
735.875 1.01727e-05
736 1.01744e-05
736.125 1.01761e-05
736.25 1.0206e-05
736.375 1.02359e-05
736.5 1.02376e-05
736.625 1.02393e-05
736.75 1.03096e-05
736.875 1.03798e-05
737 1.03816e-05
737.125 1.03834e-05
737.25 1.04487e-05
737.375 1.0514e-05
737.5 1.05158e-05
737.625 1.05176e-05
737.75 1.05793e-05
737.875 1.06411e-05
738 1.06429e-05
738.125 1.06447e-05
738.25 1.06056e-05
738.375 1.05665e-05
738.5 1.05683e-05
738.625 1.05701e-05
738.75 1.05142e-05
738.875 1.04582e-05
739 1.04599e-05
739.125 1.04617e-05
739.25 1.05297e-05
739.375 1.05977e-05
739.5 1.05995e-05
739.625 1.06013e-05
739.75 1.06486e-05
739.875 1.06959e-05
740 1.06977e-05
740.125 1.06995e-05
740.25 1.06923e-05
740.375 1.06851e-05
740.5 1.06869e-05
740.625 1.06888e-05
740.75 1.06565e-05
740.875 1.06242e-05
741 1.0626e-05
741.125 1.06278e-05
741.25 1.05706e-05
741.375 1.05135e-05
741.5 1.05152e-05
741.625 1.0517e-05
741.75 1.04935e-05
741.875 1.04699e-05
742 1.04717e-05
742.125 1.04735e-05
742.25 1.04626e-05
742.375 1.04517e-05
742.5 1.04534e-05
742.625 1.04552e-05
742.75 1.05135e-05
742.875 1.05718e-05
743 1.05735e-05
743.125 1.05753e-05
743.25 1.06329e-05
743.375 1.06905e-05
743.5 1.06923e-05
743.625 1.06941e-05
743.75 1.0731e-05
743.875 1.07679e-05
744 1.07697e-05
744.125 1.07715e-05
744.25 1.07875e-05
744.375 1.08035e-05
744.5 1.08054e-05
744.625 1.08072e-05
744.75 1.07905e-05
744.875 1.07738e-05
745 1.07756e-05
745.125 1.07774e-05
745.25 1.08207e-05
745.375 1.0864e-05
745.5 1.08659e-05
745.625 1.08677e-05
745.75 1.09501e-05
745.875 1.10325e-05
746 1.10343e-05
746.125 1.10362e-05
746.25 1.09771e-05
746.375 1.09181e-05
746.5 1.09199e-05
746.625 1.09217e-05
746.75 1.08355e-05
746.875 1.07493e-05
747 1.07511e-05
747.125 1.07529e-05
747.25 1.0785e-05
747.375 1.0817e-05
747.5 1.08188e-05
747.625 1.08206e-05
747.75 1.08499e-05
747.875 1.08793e-05
748 1.08811e-05
748.125 1.08829e-05
748.25 1.09037e-05
748.375 1.09245e-05
748.5 1.09264e-05
748.625 1.09282e-05
748.75 1.09152e-05
748.875 1.09022e-05
749 1.0904e-05
749.125 1.09059e-05
749.25 1.08515e-05
749.375 1.07971e-05
749.5 1.07989e-05
749.625 1.08007e-05
749.75 1.07782e-05
749.875 1.07557e-05
750 1.07575e-05
750.125 1.07593e-05
750.25 1.07536e-05
750.375 1.07479e-05
750.5 1.07497e-05
750.625 1.07515e-05
750.75 1.07132e-05
750.875 1.0675e-05
751 1.06768e-05
751.125 1.06786e-05
751.25 1.06392e-05
751.375 1.05999e-05
751.5 1.06016e-05
751.625 1.06034e-05
751.75 1.0629e-05
751.875 1.06546e-05
752 1.06564e-05
752.125 1.06581e-05
752.25 1.06717e-05
752.375 1.06853e-05
752.5 1.06871e-05
752.625 1.06889e-05
752.75 1.06681e-05
752.875 1.06473e-05
753 1.06491e-05
753.125 1.06509e-05
753.25 1.06485e-05
753.375 1.06461e-05
753.5 1.06479e-05
753.625 1.06497e-05
753.75 1.06692e-05
753.875 1.06888e-05
754 1.06905e-05
754.125 1.06923e-05
754.25 1.06947e-05
754.375 1.06971e-05
754.5 1.06989e-05
754.625 1.07007e-05
754.75 1.06939e-05
754.875 1.06871e-05
755 1.06888e-05
755.125 1.06906e-05
755.25 1.06799e-05
755.375 1.06693e-05
755.5 1.0671e-05
755.625 1.06728e-05
755.75 1.06615e-05
755.875 1.06501e-05
756 1.06519e-05
756.125 1.06537e-05
756.25 1.0644e-05
756.375 1.06342e-05
756.5 1.0636e-05
756.625 1.06378e-05
756.75 1.06278e-05
756.875 1.06178e-05
757 1.06196e-05
757.125 1.06213e-05
757.25 1.06104e-05
757.375 1.05995e-05
757.5 1.06013e-05
757.625 1.0603e-05
757.75 1.05991e-05
757.875 1.05951e-05
758 1.05969e-05
758.125 1.05986e-05
758.25 1.06047e-05
758.375 1.06108e-05
758.5 1.06126e-05
758.625 1.06143e-05
758.75 1.06232e-05
758.875 1.0632e-05
759 1.06338e-05
759.125 1.06355e-05
759.25 1.06462e-05
759.375 1.06569e-05
759.5 1.06587e-05
759.625 1.06604e-05
759.75 1.05845e-05
759.875 1.05084e-05
760 1.05102e-05
760.125 1.05119e-05
760.25 1.04107e-05
760.375 1.03094e-05
760.5 1.03111e-05
760.625 1.03128e-05
760.75 1.0425e-05
760.875 1.05374e-05
761 1.05391e-05
761.125 1.05408e-05
761.25 1.06337e-05
761.375 1.07266e-05
761.5 1.07284e-05
761.625 1.07301e-05
761.75 1.0628e-05
761.875 1.05258e-05
762 1.05275e-05
762.125 1.05292e-05
762.25 1.04895e-05
762.375 1.04498e-05
762.5 1.04515e-05
762.625 1.04532e-05
762.75 1.05542e-05
762.875 1.06552e-05
763 1.06569e-05
763.125 1.06587e-05
763.25 1.06998e-05
763.375 1.0741e-05
763.5 1.07427e-05
763.625 1.07445e-05
763.75 1.07211e-05
763.875 1.06976e-05
764 1.06993e-05
764.125 1.07011e-05
764.25 1.06555e-05
764.375 1.061e-05
764.5 1.06117e-05
764.625 1.06134e-05
764.75 1.05561e-05
764.875 1.04986e-05
765 1.05004e-05
765.125 1.05021e-05
765.25 1.04388e-05
765.375 1.03754e-05
765.5 1.03771e-05
765.625 1.03788e-05
765.75 1.03142e-05
765.875 1.02496e-05
766 1.02512e-05
766.125 1.02529e-05
766.25 1.02094e-05
766.375 1.01659e-05
766.5 1.01676e-05
766.625 1.01693e-05
766.75 1.01376e-05
766.875 1.01059e-05
767 1.01075e-05
767.125 1.01092e-05
767.25 1.01419e-05
767.375 1.01746e-05
767.5 1.01762e-05
767.625 1.01779e-05
767.75 1.0223e-05
767.875 1.02681e-05
768 1.02698e-05
768.125 1.02714e-05
768.25 1.03437e-05
768.375 1.04161e-05
768.5 1.04178e-05
768.625 1.04194e-05
768.75 1.04036e-05
768.875 1.03877e-05
769 1.03894e-05
769.125 1.03911e-05
769.25 1.0277e-05
769.375 1.01629e-05
769.5 1.01646e-05
769.625 1.01662e-05
769.75 1.01776e-05
769.875 1.0189e-05
770 1.01907e-05
770.125 1.01923e-05
770.25 1.0277e-05
770.375 1.03617e-05
770.5 1.03634e-05
770.625 1.03651e-05
770.75 1.04032e-05
770.875 1.04414e-05
771 1.0443e-05
771.125 1.04447e-05
771.25 1.04703e-05
771.375 1.04958e-05
771.5 1.04975e-05
771.625 1.04992e-05
771.75 1.04608e-05
771.875 1.04224e-05
772 1.04241e-05
772.125 1.04258e-05
772.25 1.03957e-05
772.375 1.03655e-05
772.5 1.03672e-05
772.625 1.03689e-05
772.75 1.04624e-05
772.875 1.05559e-05
773 1.05576e-05
773.125 1.05593e-05
773.25 1.06286e-05
773.375 1.06979e-05
773.5 1.06996e-05
773.625 1.07013e-05
773.75 1.06942e-05
773.875 1.0687e-05
774 1.06887e-05
774.125 1.06905e-05
774.25 1.06561e-05
774.375 1.06218e-05
774.5 1.06235e-05
774.625 1.06252e-05
774.75 1.05479e-05
774.875 1.04706e-05
775 1.04723e-05
775.125 1.0474e-05
775.25 1.04792e-05
775.375 1.04844e-05
775.5 1.04861e-05
775.625 1.04878e-05
775.75 1.05662e-05
775.875 1.06446e-05
776 1.06463e-05
776.125 1.0648e-05
776.25 1.06654e-05
776.375 1.06828e-05
776.5 1.06845e-05
776.625 1.06862e-05
776.75 1.0674e-05
776.875 1.06617e-05
777 1.06635e-05
777.125 1.06652e-05
777.25 1.07165e-05
777.375 1.07679e-05
777.5 1.07697e-05
777.625 1.07714e-05
777.75 1.08374e-05
777.875 1.09034e-05
778 1.09052e-05
778.125 1.09069e-05
778.25 1.08146e-05
778.375 1.07223e-05
778.5 1.0724e-05
778.625 1.07257e-05
778.75 1.06397e-05
778.875 1.05536e-05
779 1.05553e-05
779.125 1.0557e-05
779.25 1.06227e-05
779.375 1.06885e-05
779.5 1.06902e-05
779.625 1.06919e-05
779.75 1.07508e-05
779.875 1.08098e-05
780 1.08115e-05
780.125 1.08133e-05
780.25 1.0848e-05
780.375 1.08828e-05
780.5 1.08845e-05
780.625 1.08863e-05
780.75 1.09122e-05
780.875 1.09381e-05
781 1.09398e-05
781.125 1.09416e-05
781.25 1.09511e-05
781.375 1.09606e-05
781.5 1.09623e-05
781.625 1.09641e-05
781.75 1.09679e-05
781.875 1.09717e-05
782 1.09734e-05
782.125 1.09752e-05
782.25 1.09728e-05
782.375 1.09704e-05
782.5 1.09722e-05
782.625 1.09739e-05
782.75 1.09394e-05
782.875 1.09048e-05
783 1.09066e-05
783.125 1.09083e-05
783.25 1.08529e-05
783.375 1.07975e-05
783.5 1.07992e-05
783.625 1.08009e-05
783.75 1.0753e-05
783.875 1.07051e-05
784 1.07068e-05
784.125 1.07085e-05
784.25 1.06634e-05
784.375 1.06183e-05
784.5 1.062e-05
784.625 1.06216e-05
784.75 1.06482e-05
784.875 1.06747e-05
785 1.06764e-05
785.125 1.06781e-05
785.25 1.0717e-05
785.375 1.07559e-05
785.5 1.07576e-05
785.625 1.07593e-05
785.75 1.07889e-05
785.875 1.08185e-05
786 1.08202e-05
786.125 1.0822e-05
786.25 1.08502e-05
786.375 1.08784e-05
786.5 1.08801e-05
786.625 1.08818e-05
786.75 1.08987e-05
786.875 1.09155e-05
787 1.09172e-05
787.125 1.0919e-05
787.25 1.0926e-05
787.375 1.09331e-05
787.5 1.09348e-05
787.625 1.09366e-05
787.75 1.09059e-05
787.875 1.08751e-05
788 1.08769e-05
788.125 1.08786e-05
788.25 1.08328e-05
788.375 1.07869e-05
788.5 1.07886e-05
788.625 1.07903e-05
788.75 1.07121e-05
788.875 1.06339e-05
789 1.06356e-05
789.125 1.06373e-05
789.25 1.06147e-05
789.375 1.05921e-05
789.5 1.05938e-05
789.625 1.05955e-05
789.75 1.06467e-05
789.875 1.0698e-05
790 1.06997e-05
790.125 1.07014e-05
790.25 1.07103e-05
790.375 1.07193e-05
790.5 1.0721e-05
790.625 1.07227e-05
790.75 1.06954e-05
790.875 1.06681e-05
791 1.06698e-05
791.125 1.06714e-05
791.25 1.06151e-05
791.375 1.05588e-05
791.5 1.05605e-05
791.625 1.05621e-05
791.75 1.04898e-05
791.875 1.04175e-05
792 1.04192e-05
792.125 1.04208e-05
792.25 1.04566e-05
792.375 1.04923e-05
792.5 1.04939e-05
792.625 1.04956e-05
792.75 1.05676e-05
792.875 1.06396e-05
793 1.06413e-05
793.125 1.0643e-05
793.25 1.05674e-05
793.375 1.04918e-05
793.5 1.04935e-05
793.625 1.04952e-05
793.75 1.03937e-05
793.875 1.02922e-05
794 1.02938e-05
794.125 1.02954e-05
794.25 1.03663e-05
794.375 1.04372e-05
794.5 1.04389e-05
794.625 1.04405e-05
794.75 1.05162e-05
794.875 1.05919e-05
795 1.05935e-05
795.125 1.05952e-05
795.25 1.05864e-05
795.375 1.05776e-05
795.5 1.05793e-05
795.625 1.0581e-05
795.75 1.05875e-05
795.875 1.05941e-05
796 1.05958e-05
796.125 1.05974e-05
796.25 1.06975e-05
796.375 1.07977e-05
796.5 1.07994e-05
796.625 1.08011e-05
796.75 1.08697e-05
796.875 1.09383e-05
797 1.094e-05
797.125 1.09417e-05
797.25 1.09072e-05
797.375 1.08727e-05
797.5 1.08744e-05
797.625 1.08761e-05
797.75 1.08562e-05
797.875 1.08362e-05
798 1.08379e-05
798.125 1.08396e-05
798.25 1.08498e-05
798.375 1.08601e-05
798.5 1.08618e-05
798.625 1.08635e-05
798.75 1.08828e-05
798.875 1.0902e-05
799 1.09037e-05
799.125 1.09054e-05
799.25 1.09376e-05
799.375 1.09697e-05
799.5 1.09714e-05
799.625 1.09731e-05
799.75 1.10228e-05
799.875 1.10724e-05
800 1.10741e-05
800.125 1.10759e-05
800.25 1.11432e-05
800.375 1.12105e-05
800.5 1.12122e-05
800.625 1.1214e-05
800.75 1.12924e-05
800.875 1.13709e-05
801 1.13726e-05
801.125 1.13744e-05
801.25 1.14608e-05
801.375 1.15473e-05
801.5 1.15491e-05
801.625 1.15509e-05
801.75 1.15606e-05
801.875 1.15703e-05
802 1.15721e-05
802.125 1.15739e-05
802.25 1.15447e-05
802.375 1.15155e-05
802.5 1.15172e-05
802.625 1.1519e-05
802.75 1.14423e-05
802.875 1.13655e-05
803 1.13673e-05
803.125 1.1369e-05
803.25 1.12758e-05
803.375 1.11825e-05
803.5 1.11842e-05
803.625 1.1186e-05
803.75 1.1215e-05
803.875 1.12441e-05
804 1.12459e-05
804.125 1.12476e-05
804.25 1.13038e-05
804.375 1.13601e-05
804.5 1.13618e-05
804.625 1.13636e-05
804.75 1.13013e-05
804.875 1.12391e-05
805 1.12408e-05
805.125 1.12426e-05
805.25 1.11661e-05
805.375 1.10896e-05
805.5 1.10913e-05
805.625 1.10931e-05
805.75 1.11086e-05
805.875 1.11241e-05
806 1.11258e-05
806.125 1.11276e-05
806.25 1.11439e-05
806.375 1.11603e-05
806.5 1.1162e-05
806.625 1.11638e-05
806.75 1.11117e-05
806.875 1.10595e-05
807 1.10612e-05
807.125 1.1063e-05
807.25 1.10173e-05
807.375 1.09717e-05
807.5 1.09734e-05
807.625 1.09751e-05
807.75 1.09863e-05
807.875 1.09975e-05
808 1.09992e-05
808.125 1.10009e-05
808.25 1.10076e-05
808.375 1.10142e-05
808.5 1.10159e-05
808.625 1.10176e-05
808.75 1.10015e-05
808.875 1.09853e-05
809 1.0987e-05
809.125 1.09887e-05
809.25 1.09734e-05
809.375 1.09581e-05
809.5 1.09598e-05
809.625 1.09615e-05
809.75 1.09493e-05
809.875 1.0937e-05
810 1.09387e-05
810.125 1.09404e-05
810.25 1.09376e-05
810.375 1.09348e-05
810.5 1.09365e-05
810.625 1.09382e-05
810.75 1.09584e-05
810.875 1.09786e-05
811 1.09803e-05
811.125 1.0982e-05
811.25 1.10346e-05
811.375 1.10873e-05
811.5 1.1089e-05
811.625 1.10907e-05
811.75 1.12039e-05
811.875 1.1317e-05
812 1.13188e-05
812.125 1.13205e-05
812.25 1.14084e-05
812.375 1.14963e-05
812.5 1.14981e-05
812.625 1.14998e-05
812.75 1.15505e-05
812.875 1.16012e-05
813 1.16029e-05
813.125 1.16047e-05
813.25 1.16284e-05
813.375 1.16521e-05
813.5 1.16539e-05
813.625 1.16557e-05
813.75 1.16474e-05
813.875 1.16391e-05
814 1.16409e-05
814.125 1.16427e-05
814.25 1.161e-05
814.375 1.15773e-05
814.5 1.15791e-05
814.625 1.15809e-05
814.75 1.15246e-05
814.875 1.14684e-05
815 1.14701e-05
815.125 1.14719e-05
815.25 1.15267e-05
815.375 1.15816e-05
815.5 1.15834e-05
815.625 1.15852e-05
815.75 1.1728e-05
815.875 1.18709e-05
816 1.18727e-05
816.125 1.18745e-05
816.25 1.19248e-05
816.375 1.19751e-05
816.5 1.19769e-05
816.625 1.19787e-05
816.75 1.19682e-05
816.875 1.19577e-05
817 1.19596e-05
817.125 1.19614e-05
817.25 1.19158e-05
817.375 1.18702e-05
817.5 1.18721e-05
817.625 1.18739e-05
817.75 1.18093e-05
817.875 1.17447e-05
818 1.17465e-05
818.125 1.17482e-05
818.25 1.1638e-05
818.375 1.15277e-05
818.5 1.15295e-05
818.625 1.15312e-05
818.75 1.14005e-05
818.875 1.12697e-05
819 1.12714e-05
819.125 1.12731e-05
819.25 1.12412e-05
819.375 1.12092e-05
819.5 1.12109e-05
819.625 1.12126e-05
819.75 1.12174e-05
819.875 1.12222e-05
820 1.1224e-05
820.125 1.12257e-05
820.25 1.12231e-05
820.375 1.12204e-05
820.5 1.12221e-05
820.625 1.12239e-05
820.75 1.1219e-05
820.875 1.12141e-05
821 1.12158e-05
821.125 1.12175e-05
821.25 1.11715e-05
821.375 1.11254e-05
821.5 1.11271e-05
821.625 1.11288e-05
821.75 1.10726e-05
821.875 1.10163e-05
822 1.1018e-05
822.125 1.10197e-05
822.25 1.11039e-05
822.375 1.11882e-05
822.5 1.11899e-05
822.625 1.11916e-05
822.75 1.1304e-05
822.875 1.14164e-05
823 1.14181e-05
823.125 1.14199e-05
823.25 1.14419e-05
823.375 1.1464e-05
823.5 1.14658e-05
823.625 1.14675e-05
823.75 1.14752e-05
823.875 1.1483e-05
824 1.14847e-05
824.125 1.14865e-05
824.25 1.15205e-05
824.375 1.15545e-05
824.5 1.15563e-05
824.625 1.1558e-05
824.75 1.15953e-05
824.875 1.16325e-05
825 1.16343e-05
825.125 1.16361e-05
825.25 1.1628e-05
825.375 1.162e-05
825.5 1.16217e-05
825.625 1.16235e-05
825.75 1.16112e-05
825.875 1.1599e-05
826 1.16008e-05
826.125 1.16025e-05
826.25 1.15934e-05
826.375 1.15844e-05
826.5 1.15861e-05
826.625 1.15879e-05
826.75 1.1579e-05
826.875 1.15702e-05
827 1.15719e-05
827.125 1.15737e-05
827.25 1.15255e-05
827.375 1.14774e-05
827.5 1.14791e-05
827.625 1.14809e-05
827.75 1.14311e-05
827.875 1.13813e-05
828 1.1383e-05
828.125 1.13847e-05
828.25 1.14436e-05
828.375 1.15024e-05
828.5 1.15042e-05
828.625 1.15059e-05
828.75 1.15672e-05
828.875 1.16285e-05
829 1.16302e-05
829.125 1.1632e-05
829.25 1.15855e-05
829.375 1.15389e-05
829.5 1.15407e-05
829.625 1.15424e-05
829.75 1.1495e-05
829.875 1.14475e-05
830 1.14492e-05
830.125 1.14509e-05
830.25 1.13804e-05
830.375 1.13098e-05
830.5 1.13115e-05
830.625 1.13132e-05
830.75 1.12459e-05
830.875 1.11785e-05
831 1.11802e-05
831.125 1.11819e-05
831.25 1.129e-05
831.375 1.13981e-05
831.5 1.13998e-05
831.625 1.14015e-05
831.75 1.15032e-05
831.875 1.1605e-05
832 1.16068e-05
832.125 1.16085e-05
832.25 1.14798e-05
832.375 1.1351e-05
832.5 1.13527e-05
832.625 1.13544e-05
832.75 1.123e-05
832.875 1.11056e-05
833 1.11073e-05
833.125 1.11089e-05
833.25 1.11143e-05
833.375 1.11197e-05
833.5 1.11214e-05
833.625 1.11231e-05
833.75 1.11276e-05
833.875 1.11321e-05
834 1.11338e-05
834.125 1.11354e-05
834.25 1.11169e-05
834.375 1.10983e-05
834.5 1.11e-05
834.625 1.11016e-05
834.75 1.1083e-05
834.875 1.10645e-05
835 1.10661e-05
835.125 1.10678e-05
835.25 1.10483e-05
835.375 1.10288e-05
835.5 1.10304e-05
835.625 1.10321e-05
835.75 1.10173e-05
835.875 1.10025e-05
836 1.10041e-05
836.125 1.10057e-05
836.25 1.11113e-05
836.375 1.12168e-05
836.5 1.12185e-05
836.625 1.12202e-05
836.75 1.13217e-05
836.875 1.14232e-05
837 1.14249e-05
837.125 1.14266e-05
837.25 1.14152e-05
837.375 1.14038e-05
837.5 1.14055e-05
837.625 1.14072e-05
837.75 1.13945e-05
837.875 1.13818e-05
838 1.13835e-05
838.125 1.13852e-05
838.25 1.13262e-05
838.375 1.12671e-05
838.5 1.12688e-05
838.625 1.12705e-05
838.75 1.12139e-05
838.875 1.11573e-05
839 1.1159e-05
839.125 1.11606e-05
839.25 1.12224e-05
839.375 1.12841e-05
839.5 1.12858e-05
839.625 1.12875e-05
839.75 1.13493e-05
839.875 1.14112e-05
840 1.14129e-05
840.125 1.14146e-05
840.25 1.14888e-05
840.375 1.1563e-05
840.5 1.15648e-05
840.625 1.15665e-05
840.75 1.16407e-05
840.875 1.17149e-05
841 1.17167e-05
841.125 1.17184e-05
841.25 1.16357e-05
841.375 1.15529e-05
841.5 1.15546e-05
841.625 1.15563e-05
841.75 1.14731e-05
841.875 1.13899e-05
842 1.13916e-05
842.125 1.13933e-05
842.25 1.13415e-05
842.375 1.12897e-05
842.5 1.12914e-05
842.625 1.12931e-05
842.75 1.12419e-05
842.875 1.11907e-05
843 1.11924e-05
843.125 1.1194e-05
843.25 1.11737e-05
843.375 1.11533e-05
843.5 1.11549e-05
843.625 1.11566e-05
843.75 1.11374e-05
843.875 1.11182e-05
844 1.11198e-05
844.125 1.11215e-05
844.25 1.11462e-05
844.375 1.11709e-05
844.5 1.11725e-05
844.625 1.11742e-05
844.75 1.12015e-05
844.875 1.12288e-05
845 1.12304e-05
845.125 1.12321e-05
845.25 1.12725e-05
845.375 1.13128e-05
845.5 1.13145e-05
845.625 1.13162e-05
845.75 1.13576e-05
845.875 1.13991e-05
846 1.14008e-05
846.125 1.14025e-05
846.25 1.13457e-05
846.375 1.12889e-05
846.5 1.12905e-05
846.625 1.12922e-05
846.75 1.12239e-05
846.875 1.11557e-05
847 1.11573e-05
847.125 1.1159e-05
847.25 1.11733e-05
847.375 1.11877e-05
847.5 1.11894e-05
847.625 1.1191e-05
847.75 1.12181e-05
847.875 1.12451e-05
848 1.12467e-05
848.125 1.12484e-05
848.25 1.12193e-05
848.375 1.11902e-05
848.5 1.11919e-05
848.625 1.11935e-05
848.75 1.11536e-05
848.875 1.11136e-05
849 1.11153e-05
849.125 1.11169e-05
849.25 1.09544e-05
849.375 1.07918e-05
849.5 1.07934e-05
849.625 1.0795e-05
849.75 1.06029e-05
849.875 1.04108e-05
850 1.04123e-05
850.125 1.04138e-05
850.25 1.05299e-05
850.375 1.0646e-05
850.5 1.06475e-05
850.625 1.06491e-05
850.75 1.08565e-05
850.875 1.1064e-05
851 1.10657e-05
851.125 1.10673e-05
851.25 1.11023e-05
851.375 1.11372e-05
851.5 1.11389e-05
851.625 1.11405e-05
851.75 1.11127e-05
851.875 1.1085e-05
852 1.10866e-05
852.125 1.10882e-05
852.25 1.10718e-05
852.375 1.10554e-05
852.5 1.1057e-05
852.625 1.10586e-05
852.75 1.10473e-05
852.875 1.10359e-05
853 1.10375e-05
853.125 1.10391e-05
853.25 1.07597e-05
853.375 1.04802e-05
853.5 1.04818e-05
853.625 1.04833e-05
853.75 1.00609e-05
853.875 9.63835e-06
854 9.63976e-06
854.125 9.64117e-06
854.25 9.5998e-06
854.375 9.55841e-06
854.5 9.55981e-06
854.625 9.5612e-06
854.75 9.76562e-06
854.875 9.97009e-06
855 9.97155e-06
855.125 9.973e-06
855.25 1.0248e-05
855.375 1.05231e-05
855.5 1.05247e-05
855.625 1.05262e-05
855.75 1.08567e-05
855.875 1.11872e-05
856 1.11889e-05
856.125 1.11905e-05
856.25 1.13434e-05
856.375 1.14963e-05
856.5 1.1498e-05
856.625 1.14997e-05
856.75 1.14826e-05
856.875 1.14655e-05
857 1.14672e-05
857.125 1.14688e-05
857.25 1.14872e-05
857.375 1.15056e-05
857.5 1.15073e-05
857.625 1.1509e-05
857.75 1.15692e-05
857.875 1.16294e-05
858 1.16311e-05
858.125 1.16328e-05
858.25 1.17137e-05
858.375 1.17947e-05
858.5 1.17964e-05
858.625 1.17981e-05
858.75 1.19096e-05
858.875 1.20211e-05
859 1.20228e-05
859.125 1.20246e-05
859.25 1.20891e-05
859.375 1.21536e-05
859.5 1.21553e-05
859.625 1.21571e-05
859.75 1.21335e-05
859.875 1.21098e-05
860 1.21116e-05
860.125 1.21133e-05
860.25 1.20796e-05
860.375 1.20459e-05
860.5 1.20476e-05
860.625 1.20494e-05
860.75 1.19908e-05
860.875 1.19323e-05
861 1.1934e-05
861.125 1.19357e-05
861.25 1.18919e-05
861.375 1.18481e-05
861.5 1.18498e-05
861.625 1.18516e-05
861.75 1.18578e-05
861.875 1.18641e-05
862 1.18658e-05
862.125 1.18676e-05
862.25 1.18803e-05
862.375 1.1893e-05
862.5 1.18948e-05
862.625 1.18965e-05
862.75 1.19423e-05
862.875 1.19881e-05
863 1.19898e-05
863.125 1.19916e-05
863.25 1.20315e-05
863.375 1.20714e-05
863.5 1.20731e-05
863.625 1.20748e-05
863.75 1.20596e-05
863.875 1.20444e-05
864 1.20461e-05
864.125 1.20479e-05
864.25 1.20314e-05
864.375 1.20149e-05
864.5 1.20167e-05
864.625 1.20184e-05
864.75 1.19572e-05
864.875 1.1896e-05
865 1.18977e-05
865.125 1.18994e-05
865.25 1.18382e-05
865.375 1.1777e-05
865.5 1.17787e-05
865.625 1.17804e-05
865.75 1.14395e-05
865.875 1.10984e-05
866 1.11e-05
866.125 1.11016e-05
866.25 1.07478e-05
866.375 1.03938e-05
866.5 1.03953e-05
866.625 1.03968e-05
866.75 1.05763e-05
866.875 1.0756e-05
867 1.07575e-05
867.125 1.07591e-05
867.25 1.10102e-05
867.375 1.12613e-05
867.5 1.1263e-05
867.625 1.12646e-05
867.75 1.13338e-05
867.875 1.1403e-05
868 1.14046e-05
868.125 1.14063e-05
868.25 1.14315e-05
868.375 1.14567e-05
868.5 1.14584e-05
868.625 1.146e-05
868.75 1.15089e-05
868.875 1.15578e-05
869 1.15595e-05
869.125 1.15611e-05
869.25 1.16189e-05
869.375 1.16768e-05
869.5 1.16784e-05
869.625 1.16801e-05
869.75 1.17692e-05
869.875 1.18582e-05
870 1.18599e-05
870.125 1.18616e-05
870.25 1.19678e-05
870.375 1.20741e-05
870.5 1.20758e-05
870.625 1.20776e-05
870.75 1.21342e-05
870.875 1.21909e-05
871 1.21926e-05
871.125 1.21944e-05
871.25 1.22121e-05
871.375 1.22299e-05
871.5 1.22316e-05
871.625 1.22334e-05
871.75 1.22378e-05
871.875 1.22422e-05
872 1.2244e-05
872.125 1.22458e-05
872.25 1.22354e-05
872.375 1.2225e-05
872.5 1.22268e-05
872.625 1.22285e-05
872.75 1.2243e-05
872.875 1.22575e-05
873 1.22593e-05
873.125 1.2261e-05
873.25 1.23155e-05
873.375 1.237e-05
873.5 1.23718e-05
873.625 1.23735e-05
873.75 1.23585e-05
873.875 1.23434e-05
874 1.23452e-05
874.125 1.2347e-05
874.25 1.21633e-05
874.375 1.19797e-05
874.5 1.19814e-05
874.625 1.19831e-05
874.75 1.18575e-05
874.875 1.17318e-05
875 1.17335e-05
875.125 1.17352e-05
875.25 1.18439e-05
875.375 1.19527e-05
875.5 1.19544e-05
875.625 1.19561e-05
875.75 1.20551e-05
875.875 1.21541e-05
876 1.21558e-05
876.125 1.21575e-05
876.25 1.21707e-05
876.375 1.21838e-05
876.5 1.21856e-05
876.625 1.21873e-05
876.75 1.22005e-05
876.875 1.22137e-05
877 1.22155e-05
877.125 1.22172e-05
877.25 1.22577e-05
877.375 1.22982e-05
877.5 1.23e-05
877.625 1.23017e-05
877.75 1.23422e-05
877.875 1.23827e-05
878 1.23844e-05
878.125 1.23862e-05
878.25 1.23537e-05
878.375 1.23211e-05
878.5 1.23229e-05
878.625 1.23246e-05
878.75 1.22841e-05
878.875 1.22435e-05
879 1.22452e-05
879.125 1.2247e-05
879.25 1.25481e-05
879.375 1.28493e-05
879.5 1.28511e-05
879.625 1.2853e-05
879.75 1.32411e-05
879.875 1.36294e-05
880 1.36313e-05
880.125 1.36332e-05
880.25 1.34437e-05
880.375 1.32541e-05
880.5 1.3256e-05
880.625 1.32579e-05
880.75 1.28095e-05
880.875 1.23609e-05
881 1.23626e-05
881.125 1.23644e-05
881.25 1.2223e-05
881.375 1.20816e-05
881.5 1.20833e-05
881.625 1.2085e-05
881.75 1.21646e-05
881.875 1.22442e-05
882 1.22459e-05
882.125 1.22476e-05
882.25 1.23042e-05
882.375 1.23607e-05
882.5 1.23624e-05
882.625 1.23642e-05
882.75 1.23946e-05
882.875 1.2425e-05
883 1.24268e-05
883.125 1.24285e-05
883.25 1.24443e-05
883.375 1.24601e-05
883.5 1.24618e-05
883.625 1.24636e-05
883.75 1.24528e-05
883.875 1.24419e-05
884 1.24437e-05
884.125 1.24454e-05
884.25 1.24612e-05
884.375 1.24771e-05
884.5 1.24788e-05
884.625 1.24806e-05
884.75 1.25814e-05
884.875 1.26823e-05
885 1.26841e-05
885.125 1.26859e-05
885.25 1.27618e-05
885.375 1.28377e-05
885.5 1.28395e-05
885.625 1.28413e-05
885.75 1.27336e-05
885.875 1.26258e-05
886 1.26276e-05
886.125 1.26293e-05
886.25 1.25216e-05
886.375 1.24139e-05
886.5 1.24156e-05
886.625 1.24174e-05
886.75 1.23093e-05
886.875 1.22011e-05
887 1.22029e-05
887.125 1.22046e-05
887.25 1.20965e-05
887.375 1.19884e-05
887.5 1.19901e-05
887.625 1.19918e-05
887.75 1.20414e-05
887.875 1.20909e-05
888 1.20926e-05
888.125 1.20943e-05
888.25 1.21668e-05
888.375 1.22393e-05
888.5 1.2241e-05
888.625 1.22427e-05
888.75 1.23005e-05
888.875 1.23583e-05
889 1.23601e-05
889.125 1.23618e-05
889.25 1.24146e-05
889.375 1.24674e-05
889.5 1.24691e-05
889.625 1.24709e-05
889.75 1.24518e-05
889.875 1.24327e-05
890 1.24345e-05
890.125 1.24362e-05
890.25 1.23725e-05
890.375 1.23089e-05
890.5 1.23106e-05
890.625 1.23123e-05
890.75 1.22661e-05
890.875 1.22198e-05
891 1.22215e-05
891.125 1.22233e-05
891.25 1.21956e-05
891.375 1.21679e-05
891.5 1.21696e-05
891.625 1.21713e-05
891.75 1.21844e-05
891.875 1.21974e-05
892 1.21992e-05
892.125 1.22009e-05
892.25 1.22896e-05
892.375 1.23783e-05
892.5 1.238e-05
892.625 1.23818e-05
892.75 1.24682e-05
892.875 1.25546e-05
893 1.25563e-05
893.125 1.25581e-05
893.25 1.26361e-05
893.375 1.27141e-05
893.5 1.27159e-05
893.625 1.27176e-05
893.75 1.27769e-05
893.875 1.28363e-05
894 1.28381e-05
894.125 1.28398e-05
894.25 1.26644e-05
894.375 1.2489e-05
894.5 1.24907e-05
894.625 1.24925e-05
894.75 1.23171e-05
894.875 1.21417e-05
895 1.21434e-05
895.125 1.21451e-05
895.25 1.22505e-05
895.375 1.23558e-05
895.5 1.23575e-05
895.625 1.23593e-05
895.75 1.24852e-05
895.875 1.26111e-05
896 1.26129e-05
896.125 1.26146e-05
896.25 1.2589e-05
896.375 1.25633e-05
896.5 1.25651e-05
896.625 1.25668e-05
896.75 1.24999e-05
896.875 1.2433e-05
897 1.24348e-05
897.125 1.24365e-05
897.25 1.24557e-05
897.375 1.24749e-05
897.5 1.24767e-05
897.625 1.24784e-05
897.75 1.25463e-05
897.875 1.26142e-05
898 1.26159e-05
898.125 1.26177e-05
898.25 1.26785e-05
898.375 1.27394e-05
898.5 1.27411e-05
898.625 1.27429e-05
898.75 1.27963e-05
898.875 1.28498e-05
899 1.28516e-05
899.125 1.28534e-05
899.25 1.28782e-05
899.375 1.2903e-05
899.5 1.29048e-05
899.625 1.29066e-05
899.75 1.28751e-05
899.875 1.28436e-05
900 1.28454e-05
900.125 1.28472e-05
900.25 1.28019e-05
900.375 1.27566e-05
900.5 1.27584e-05
900.625 1.27601e-05
900.75 1.26519e-05
900.875 1.25437e-05
901 1.25454e-05
901.125 1.25472e-05
901.25 1.24407e-05
901.375 1.23342e-05
901.5 1.23359e-05
901.625 1.23377e-05
901.75 1.23057e-05
901.875 1.22736e-05
902 1.22753e-05
902.125 1.2277e-05
902.25 1.22451e-05
902.375 1.22131e-05
902.5 1.22148e-05
902.625 1.22165e-05
902.75 1.23105e-05
902.875 1.24046e-05
903 1.24063e-05
903.125 1.24081e-05
903.25 1.25222e-05
903.375 1.26364e-05
903.5 1.26381e-05
903.625 1.26399e-05
903.75 1.26856e-05
903.875 1.27313e-05
904 1.2733e-05
904.125 1.27348e-05
904.25 1.27511e-05
904.375 1.27674e-05
904.5 1.27692e-05
904.625 1.2771e-05
904.75 1.28053e-05
904.875 1.28398e-05
905 1.28415e-05
905.125 1.28433e-05
905.25 1.28935e-05
905.375 1.29437e-05
905.5 1.29455e-05
905.625 1.29473e-05
905.75 1.29702e-05
905.875 1.29932e-05
906 1.2995e-05
906.125 1.29968e-05
906.25 1.29726e-05
906.375 1.29485e-05
906.5 1.29503e-05
906.625 1.2952e-05
906.75 1.29329e-05
906.875 1.29137e-05
907 1.29155e-05
907.125 1.29172e-05
907.25 1.29186e-05
907.375 1.292e-05
907.5 1.29218e-05
907.625 1.29236e-05
907.75 1.29207e-05
907.875 1.29178e-05
908 1.29195e-05
908.125 1.29213e-05
908.25 1.27313e-05
908.375 1.25413e-05
908.5 1.2543e-05
908.625 1.25447e-05
908.75 1.23548e-05
908.875 1.21648e-05
909 1.21664e-05
909.125 1.21681e-05
909.25 1.22382e-05
909.375 1.23084e-05
909.5 1.23101e-05
909.625 1.23118e-05
909.75 1.24293e-05
909.875 1.25468e-05
910 1.25485e-05
910.125 1.25502e-05
910.25 1.26203e-05
910.375 1.26904e-05
910.5 1.26921e-05
910.625 1.26939e-05
910.75 1.27403e-05
910.875 1.27868e-05
911 1.27885e-05
911.125 1.27903e-05
911.25 1.2812e-05
911.375 1.28336e-05
911.5 1.28354e-05
911.625 1.28372e-05
911.75 1.28327e-05
911.875 1.28282e-05
912 1.28299e-05
912.125 1.28317e-05
912.25 1.28233e-05
912.375 1.28149e-05
912.5 1.28167e-05
912.625 1.28184e-05
912.75 1.28011e-05
912.875 1.27837e-05
913 1.27854e-05
913.125 1.27872e-05
913.25 1.27767e-05
913.375 1.27661e-05
913.5 1.27679e-05
913.625 1.27696e-05
913.75 1.28105e-05
913.875 1.28515e-05
914 1.28532e-05
914.125 1.2855e-05
914.25 1.28959e-05
914.375 1.29368e-05
914.5 1.29386e-05
914.625 1.29403e-05
914.75 1.29042e-05
914.875 1.28681e-05
915 1.28699e-05
915.125 1.28716e-05
915.25 1.28295e-05
915.375 1.27874e-05
915.5 1.27891e-05
915.625 1.27909e-05
915.75 1.28434e-05
915.875 1.2896e-05
916 1.28977e-05
916.125 1.28995e-05
916.25 1.29859e-05
916.375 1.30724e-05
916.5 1.30742e-05
916.625 1.3076e-05
916.75 1.30726e-05
916.875 1.30693e-05
917 1.30711e-05
917.125 1.30729e-05
917.25 1.29938e-05
917.375 1.29147e-05
917.5 1.29165e-05
917.625 1.29183e-05
917.75 1.28746e-05
917.875 1.28309e-05
918 1.28326e-05
918.125 1.28344e-05
918.25 1.28576e-05
918.375 1.28808e-05
918.5 1.28825e-05
918.625 1.28843e-05
918.75 1.28937e-05
918.875 1.29032e-05
919 1.29049e-05
919.125 1.29067e-05
919.25 1.28352e-05
919.375 1.27637e-05
919.5 1.27654e-05
919.625 1.27672e-05
919.75 1.26957e-05
919.875 1.26243e-05
920 1.2626e-05
920.125 1.26277e-05
920.25 1.25606e-05
920.375 1.24936e-05
920.5 1.24953e-05
920.625 1.2497e-05
920.75 1.24302e-05
920.875 1.23634e-05
921 1.23651e-05
921.125 1.23668e-05
921.25 1.22819e-05
921.375 1.2197e-05
921.5 1.21986e-05
921.625 1.22003e-05
921.75 1.2109e-05
921.875 1.20177e-05
922 1.20193e-05
922.125 1.2021e-05
922.25 1.19409e-05
922.375 1.18607e-05
922.5 1.18623e-05
922.625 1.18639e-05
922.75 1.17936e-05
922.875 1.17233e-05
923 1.17249e-05
923.125 1.17265e-05
923.25 1.17153e-05
923.375 1.17042e-05
923.5 1.17058e-05
923.625 1.17074e-05
923.75 1.18217e-05
923.875 1.1936e-05
924 1.19376e-05
924.125 1.19393e-05
924.25 1.19991e-05
924.375 1.2059e-05
924.5 1.20606e-05
924.625 1.20622e-05
924.75 1.16726e-05
924.875 1.12828e-05
925 1.12843e-05
925.125 1.12858e-05
925.25 1.08963e-05
925.375 1.05066e-05
925.5 1.0508e-05
925.625 1.05094e-05
925.75 1.08779e-05
925.875 1.12464e-05
926 1.1248e-05
926.125 1.12495e-05
926.25 1.17087e-05
926.375 1.2168e-05
926.5 1.21697e-05
926.625 1.21713e-05
926.75 1.2392e-05
926.875 1.26127e-05
927 1.26144e-05
927.125 1.26161e-05
927.25 1.2722e-05
927.375 1.2828e-05
927.5 1.28297e-05
927.625 1.28315e-05
927.75 1.27688e-05
927.875 1.27061e-05
928 1.27079e-05
928.125 1.27096e-05
928.25 1.24449e-05
928.375 1.21802e-05
928.5 1.21819e-05
928.625 1.21835e-05
928.75 1.20021e-05
928.875 1.18207e-05
929 1.18222e-05
929.125 1.18238e-05
929.25 1.19195e-05
929.375 1.20152e-05
929.5 1.20168e-05
929.625 1.20185e-05
929.75 1.21139e-05
929.875 1.22093e-05